time (s)	coil I (A)	last det (V)	int current (uC)
74103.139523	0.373161	297.753906	89.257812
74103.141525	0.715211	297.753906	89.257812
74103.143525	0.890140	297.753906	89.257812
74103.147523	0.886417	9.750582	0.806471
74104.166166	0.807486	175.585937	-323.046875
74104.168166	0.889235	175.585937	-323.046875
74104.170167	0.886169	9.747862	0.838243
74105.222196	0.701490	296.777344	90.722656
74105.224197	0.889192	296.777344	90.722656
74105.226199	0.888631	9.774936	0.729197
74106.244770	0.457841	180.664062	-313.964844
74106.246774	0.787771	180.664062	-313.964844
74106.248776	0.890401	180.664062	-313.964844
74106.250774	0.887304	9.760348	0.854911
74107.302824	0.675016	297.851562	89.062500
74107.304825	0.886599	297.851562	89.062500
74107.306823	0.888698	297.851562	89.062500
74107.308823	0.886451	9.750963	0.820931
74108.334848	0.648875	177.929687	-317.089844
74108.336856	0.880650	177.929687	-317.089844
74108.338861	0.887437	177.929687	-317.089844
74108.340862	0.885257	9.737829	0.886042
74109.390894	0.523301	298.535156	86.718750
74109.392897	0.831278	298.535156	86.718750
74109.394896	0.888635	298.535156	86.718750
74109.396896	0.885876	9.744636	0.836078
74110.414917	0.526980	184.179687	-307.226562
74110.416920	0.833535	184.179687	-307.226562
74110.418920	0.888917	184.179687	-307.226562
74110.420919	0.886101	9.747108	0.818510
74111.463463	0.522372	298.144531	90.136719
74111.467462	0.888709	298.144531	90.136719
74111.469464	0.885902	298.144531	90.136719
74111.471465	0.884332	9.727655	0.810481
74112.502384	0.266195	176.660156	-319.433594
74112.506383	0.871592	176.660156	-319.433594
74112.508384	0.888019	176.660156	-319.433594
74112.510383	0.885675	9.742420	0.874194
74113.552392	0.517306	300.976562	86.328125
74113.554394	0.827870	300.976562	86.328125
74113.556394	0.888956	300.976562	86.328125
74113.558394	0.888864	9.777506	0.809433
74114.593343	0.613536	169.531250	-334.765625
74114.595343	0.871569	169.531250	-334.765625
74114.597342	0.887889	169.531250	-334.765625
74114.599342	0.885525	9.740771	0.846067
74115.635447	0.853738	304.882812	79.199219
74115.637449	0.888971	304.882812	79.199219
74115.639449	0.886405	9.750450	0.819158
74116.673512	0.512135	167.089844	-339.257812
74116.675514	0.824529	167.089844	-339.257812
74116.677515	0.888396	167.089844	-339.257812
74116.679514	0.885562	9.741179	0.842918
74117.723537	0.754625	309.375000	79.101562
74117.725538	0.889791	309.375000	79.101562
74117.729538	0.885044	9.735481	0.863789
74118.755552	0.728640	168.847656	-333.203125
74118.759553	0.889852	168.847656	-333.203125
74118.761553	0.885576	9.741339	0.850875
74119.810507	0.420063	310.449219	74.316406
74119.812511	0.757062	310.449219	74.316406
74119.814510	0.762049	310.449219	74.316406
74119.816509	0.886314	9.749457	0.836717
74120.834512	0.420762	162.304687	-341.601562
74120.836512	0.757576	162.304687	-341.601562
74120.840510	0.886469	162.304687	-341.601562
74120.842511	0.884655	9.731200	0.859917
74121.891059	0.382893	308.691406	78.417969
74121.893062	0.724082	308.691406	78.417969
74121.897061	0.887545	308.691406	78.417969
74121.899062	0.885588	9.741472	0.834614
74122.915106	0.390994	165.039062	-335.546875
74122.917106	0.731477	165.039062	-335.546875
74122.919107	0.888933	165.039062	-335.546875
74122.921107	0.886600	9.752603	0.918858
74123.971681	0.357223	305.664062	79.101562
74123.975682	0.888726	305.664062	79.101562
74123.977682	0.888274	305.664062	79.101562
74123.979682	0.886180	9.747976	0.848493
74125.005776	0.677551	154.003906	-353.125000
74125.007777	0.886467	154.003906	-353.125000
74125.013774	0.884236	154.003906	-353.125000
74125.015778	0.883108	9.714193	0.835945
74126.061785	0.554220	303.515625	81.738281
74126.063787	0.847829	303.515625	81.738281
74126.067785	0.885643	303.515625	81.738281
74126.071786	0.882905	9.711960	0.773906
74127.092710	0.333609	155.761719	-351.757812
74127.094713	0.677418	155.761719	-351.757812
74127.096712	0.887627	155.761719	-351.757812
74127.098711	0.889878	155.761719	-351.757812
74127.100710	0.887598	9.763583	0.821796
74128.142722	0.582431	305.175781	78.710937
74128.146723	0.888091	305.175781	78.710937
74128.148725	0.885691	305.175781	78.710937
74128.150724	0.884199	9.726185	0.773362
74129.175250	0.640283	157.031250	-352.050781
74129.179251	0.887490	157.031250	-352.050781
74129.181253	0.885357	157.031250	-352.050781
74129.183253	0.883891	9.722799	0.897534
74130.223246	0.541479	308.691406	76.367187
74130.225248	0.841289	308.691406	76.367187
74130.227249	0.888355	308.691406	76.367187
74130.229248	0.885655	9.742208	0.826086
74131.263794	0.567795	153.613281	-360.937500
74131.265796	0.854010	153.613281	-360.937500
74131.267795	0.887782	153.613281	-360.937500
74131.269797	0.885292	9.738211	0.813517
74132.307792	0.888778	312.207031	75.683594
74132.309795	0.885911	312.207031	75.683594
74132.311795	0.884230	9.726530	0.834877
74133.346772	0.870188	154.101562	-359.179687
74133.348774	0.890040	154.101562	-359.179687
74133.350775	0.887560	9.763158	0.841990
74134.395335	0.867433	313.867187	67.675781
74134.397337	0.887692	313.867187	67.675781
74134.399337	0.885343	9.738769	0.823360
74135.425338	0.568691	155.761719	-354.296875
74135.427340	0.854357	155.761719	-354.296875
74135.429341	0.887529	155.761719	-354.296875
74135.431340	0.885112	9.736235	0.832963
74136.474299	0.634825	316.406250	71.484375
74136.476302	0.877337	316.406250	71.484375
74136.478299	0.887402	316.406250	71.484375
74136.480299	0.885242	9.737661	0.901866
74137.506283	0.599453	145.507812	-372.265625
74137.508286	0.866886	145.507812	-372.265625
74137.510285	0.887777	145.507812	-372.265625
74137.512286	0.885409	9.739504	0.819243
74138.562257	0.466478	315.917969	66.992187
74138.564259	0.794076	315.917969	66.992187
74138.566261	0.890188	315.917969	66.992187
74138.568259	0.887106	9.758168	0.792295
74139.588316	0.801558	152.050781	-358.789062
74139.590317	0.890569	152.050781	-358.789062
74139.592316	0.887545	9.762990	0.850341
74140.642820	0.431465	317.578125	67.968750
74140.644822	0.766535	317.578125	67.968750
74140.646823	0.889838	317.578125	67.968750
74140.648822	0.886807	9.754881	0.828348
74141.676842	0.740680	145.800781	-369.042969
74141.678845	0.888900	145.800781	-369.042969
74141.680844	0.886287	9.749155	1.139784
74142.732839	0.610500	317.480469	67.187500
74142.734840	0.870691	317.480469	67.187500
74142.736841	0.887868	317.480469	67.187500
74142.738840	0.885549	9.741037	0.793733
74143.755365	0.358135	142.285156	-376.855469
74143.757363	0.700753	142.285156	-376.855469
74143.759365	0.888182	142.285156	-376.855469
74143.761364	0.887593	9.763521	0.799646
74144.813380	0.572714	317.675781	65.234375
74144.815380	0.856203	317.675781	65.234375
74144.817380	0.887753	317.675781	65.234375
74144.819380	0.885302	9.738317	0.761941
74145.837401	0.576659	137.402344	-385.839844
74145.839403	0.858289	137.402344	-385.839844
74145.841404	0.888540	137.402344	-385.839844
74145.843403	0.886012	9.746134	0.829039
74146.893411	0.446266	316.894531	63.671875
74146.895413	0.779123	316.894531	63.671875
74146.899412	0.890208	316.894531	63.671875
74146.901412	0.888324	9.771560	0.792507
74147.927413	0.750396	142.773437	-375.585937
74147.929416	0.888959	142.773437	-375.585937
74147.931414	0.886178	9.747959	0.815133
74148.973935	0.403011	319.531250	67.285156
74148.975936	0.742067	319.531250	67.285156
74148.977937	0.890256	319.531250	67.285156
74148.979935	0.887675	9.764425	0.817587
74150.005941	0.370303	140.527344	-382.324219
74150.007944	0.712246	140.527344	-382.324219
74150.009943	0.889601	140.527344	-382.324219
74150.011941	0.888202	9.770222	0.814902
74151.055965	0.617755	315.820312	64.648437
74151.057970	0.872757	315.820312	64.648437
74151.059972	0.887665	315.820312	64.648437
74151.061970	0.885431	9.739743	0.813518
74152.097999	0.850706	145.996094	-371.484375
74152.100002	0.853759	145.996094	-371.484375
74152.102002	0.885960	9.745557	0.777293
74153.134906	0.303685	315.136719	68.652344
74153.136910	0.648712	315.136719	68.652344
74153.138909	0.882176	315.136719	68.652344
74153.140910	0.889518	315.136719	68.652344
74153.142909	0.887181	9.758993	0.802623
74154.176953	0.590725	140.820312	-379.785156
74154.178956	0.863466	140.820312	-379.785156
74154.180956	0.887619	140.820312	-379.785156
74154.182956	0.885249	9.737741	0.806878
74155.216974	0.529542	314.160156	70.703125
74155.218978	0.834492	314.160156	70.703125
74155.220976	0.888040	314.160156	70.703125
74155.222977	0.885409	9.739504	0.809571
74156.258983	0.793646	137.890625	-382.324219
74156.260985	0.888991	137.890625	-382.324219
74156.262985	0.885955	9.745504	0.804183
74157.307027	0.715848	312.792969	72.070312
74157.309031	0.889193	312.792969	72.070312
74157.311029	0.887476	9.762237	0.748409
74158.337611	0.442170	139.453125	-373.925781
74158.339615	0.775177	139.453125	-373.925781
74158.341615	0.889586	139.453125	-373.925781
74158.343613	0.886502	9.751522	0.817044
74159.385683	0.354279	313.867187	71.582031
74159.387684	0.697022	313.867187	71.582031
74159.389684	0.887025	313.867187	71.582031
74159.391684	0.886591	9.752505	0.786928
74160.418244	0.416836	130.371094	-392.089844
74160.420243	0.754168	130.371094	-392.089844
74160.422244	0.889794	130.371094	-392.089844
74160.424245	0.886921	9.756130	0.825438
74161.474246	0.283873	313.671875	66.210937
74161.476247	0.629848	313.671875	66.210937
74161.478249	0.875896	313.671875	66.210937
74161.480247	0.887302	313.671875	66.210937
74161.482248	0.885069	9.735765	0.745775
74162.498279	0.287172	129.492187	-395.800781
74162.502279	0.877039	129.492187	-395.800781
74162.504282	0.887544	129.492187	-395.800781
74162.508280	0.883944	9.723384	0.832295
74163.556309	0.509901	317.968750	64.160156
74163.558310	0.823191	317.968750	64.160156
74163.560312	0.888726	317.968750	64.160156
74163.562311	0.885917	9.745088	0.763417
74164.580316	0.510171	126.269531	-403.417969
74164.582319	0.823183	126.269531	-403.417969
74164.584320	0.888338	126.269531	-403.417969
74164.586318	0.885589	9.741481	0.831566
74165.636355	0.385990	320.703125	61.621094
74165.638358	0.726841	320.703125	61.621094
74165.640358	0.890314	320.703125	61.621094
74165.642358	0.888172	9.769893	0.769360
74166.668395	0.359075	131.835937	-392.089844
74166.670399	0.701498	131.835937	-392.089844
74166.672402	0.888817	131.835937	-392.089844
74166.674403	0.888232	9.770550	0.773248
74167.717317	0.420221	323.046875	61.718750
74167.719317	0.757054	323.046875	61.718750
74167.721319	0.889000	323.046875	61.718750
74167.723317	0.886072	9.746789	0.776850
74168.749360	0.394219	140.429687	-377.148437
74168.751363	0.734138	140.429687	-377.148437
74168.753363	0.888297	140.429687	-377.148437
74168.755362	0.885847	9.744317	0.794583
74169.797383	0.296911	322.851562	63.476562
74169.799385	0.642221	322.851562	63.476562
74169.801387	0.878797	322.851562	63.476562
74169.803385	0.886988	322.851562	63.476562
74169.807385	0.883353	9.716879	0.777168
74170.839939	0.669934	125.976562	-410.253906
74170.841941	0.883618	125.976562	-410.253906
74170.843940	0.886386	125.976562	-410.253906
74170.845942	0.884344	9.727788	0.912421
74171.887952	0.571778	317.968750	62.988281
74171.889955	0.855745	317.968750	62.988281
74171.891957	0.887869	317.968750	62.988281
74171.895954	0.883808	9.721887	0.692269
74172.920024	0.551755	126.367187	-407.226562
74172.922030	0.846235	126.367187	-407.226562
74172.924036	0.887619	126.367187	-407.226562
74172.926035	0.885107	9.736172	0.794928
74173.968100	0.467466	317.089844	64.941406
74173.970101	0.794628	317.089844	64.941406
74173.972102	0.889926	317.089844	64.941406
74173.976100	0.885134	9.736474	0.701544
74175.000654	0.527377	137.500000	-378.613281
74175.002656	0.833358	137.500000	-378.613281
74175.004663	0.888152	137.500000	-378.613281
74175.006669	0.885460	9.740063	0.801867
74176.049213	0.526511	318.066406	66.894531
74176.051215	0.832838	318.066406	66.894531
74176.053217	0.888076	318.066406	66.894531
74176.055215	0.885338	9.738715	0.710209
74177.090113	0.613393	127.441406	-399.121094
74177.092114	0.871090	127.441406	-399.121094
74177.094116	0.887221	127.441406	-399.121094
74177.096114	0.884927	9.734196	0.732355
74178.130108	0.548594	316.308594	65.136719
74178.132110	0.844546	316.308594	65.136719
74178.134111	0.887455	316.308594	65.136719
74178.136111	0.884893	9.733824	0.711972
74179.170132	0.486692	128.222656	-394.921875
74179.172135	0.807764	128.222656	-394.921875
74179.174136	0.888216	128.222656	-394.921875
74179.176134	0.885327	9.738601	0.724629
74180.210164	0.426817	315.820312	64.746094
74180.212165	0.762636	315.820312	64.746094
74180.214164	0.890227	315.820312	64.746094
74180.216166	0.887209	9.759303	0.741540
74181.250260	0.376763	125.000000	-403.027344
74181.252261	0.718227	125.000000	-403.027344
74181.254262	0.889522	125.000000	-403.027344
74181.256260	0.887689	9.764576	0.740850
74182.300315	0.629924	317.089844	65.527344
74182.302315	0.875367	317.089844	65.527344
74182.304317	0.886644	317.089844	65.527344
74182.306316	0.884419	9.728604	0.674756
74183.330828	0.341026	123.632812	-404.882812
74183.332833	0.684234	123.632812	-404.882812
74183.334838	0.887715	123.632812	-404.882812
74183.336839	0.888811	123.632812	-404.882812
74183.338838	0.886624	9.752860	0.747230
74184.382909	0.866654	317.480469	63.476562
74184.384911	0.887253	317.480469	63.476562
74184.386911	0.885008	9.735091	0.674380
74185.417466	0.886673	123.339844	-405.957031
74185.419468	0.884634	9.730970	0.759002
74186.463498	0.854519	317.480469	63.183594
74186.465502	0.888039	317.480469	63.183594
74186.467500	0.885542	9.740958	0.678322
74187.501615	0.523919	120.898437	-413.867187
74187.503616	0.831245	120.898437	-413.867187
74187.505615	0.887683	120.898437	-413.867187
74187.507616	0.884923	9.734152	0.685178
74188.541657	0.466073	317.871094	61.621094
74188.543661	0.793234	317.871094	61.621094
74188.545660	0.888653	317.871094	61.621094
74188.547661	0.885671	9.742376	0.682211
74189.581675	0.402874	125.097656	-405.078125
74189.583675	0.741861	125.097656	-405.078125
74189.585675	0.888951	125.097656	-405.078125
74189.587674	0.886355	9.749908	0.699342
74190.621657	0.331602	321.093750	59.667969
74190.625660	0.886640	321.093750	59.667969
74190.627661	0.889072	321.093750	59.667969
74190.629662	0.886830	9.755129	0.723952
74191.663731	0.622183	119.433594	-419.824219
74191.665732	0.873562	119.433594	-419.824219
74191.667732	0.887087	119.433594	-419.824219
74191.669732	0.884854	9.733390	0.767811
74192.703795	0.567930	324.609375	58.203125
74192.705795	0.853549	324.609375	58.203125
74192.707795	0.886976	324.609375	58.203125
74192.709796	0.886868	9.755546	0.726246
74193.743825	0.508885	120.117187	-415.917969
74193.745827	0.522003	120.117187	-415.917969
74193.747827	0.888197	120.117187	-415.917969
74193.749829	0.885430	9.739726	0.688104
74194.791841	0.412262	325.195312	55.078125
74194.793844	0.750152	325.195312	55.078125
74194.795845	0.889883	325.195312	55.078125
74194.797843	0.887050	9.757548	0.661167
74195.823844	0.379054	121.386719	-409.179687
74195.825848	0.720196	121.386719	-409.179687
74195.827848	0.889277	121.386719	-409.179687
74195.829850	0.887348	9.760827	0.707312
74196.874828	0.780965	328.320312	57.128906
74196.876828	0.889178	328.320312	57.128906
74196.878830	0.886102	9.747117	0.688968
74197.905351	0.507141	112.890625	-426.367187
74197.907351	0.821124	112.890625	-426.367187
74197.909350	0.888119	112.890625	-426.367187
74197.911349	0.885302	9.738326	0.687069
74198.963404	0.722815	321.191406	55.078125
74198.965406	0.888705	321.191406	55.078125
74198.967405	0.886675	9.753427	0.632936
74199.985449	0.392103	110.937500	-429.296875
74199.987452	0.732152	110.937500	-429.296875
74199.989451	0.889230	110.937500	-429.296875
74199.991451	0.886906	9.755961	0.713094
74201.043466	0.603879	321.972656	57.812500
74201.045467	0.867674	321.972656	57.812500
74201.047468	0.886807	321.972656	57.812500
74201.049468	0.884543	9.729968	0.643634
74202.067531	0.616197	116.796875	-411.816406
74202.069532	0.872156	116.796875	-411.816406
74202.071534	0.887451	116.796875	-411.816406
74202.073532	0.885209	9.737298	0.768963
74203.123595	0.495168	319.726562	59.472656
74203.127597	0.888150	319.726562	59.472656
74203.129597	0.885268	319.726562	59.472656
74203.131597	0.883585	9.719440	0.631557
74204.157607	0.792951	119.042969	-404.199219
74204.159608	0.889299	119.042969	-404.199219
74204.163608	0.884577	9.730350	0.650777
74205.204167	0.463735	320.996094	62.109375
74205.206168	0.791621	320.996094	62.109375
74205.208168	0.888911	320.996094	62.109375
74205.210168	0.885816	9.743971	0.649861
74206.236724	0.527120	112.792969	-421.093750
74206.238726	0.833235	112.792969	-421.093750
74206.242725	0.885608	112.792969	-421.093750
74206.244730	0.884034	9.724377	0.683905
74207.284748	0.431827	320.996094	60.742187
74207.286751	0.766804	320.996094	60.742187
74207.288751	0.890123	320.996094	60.742187
74207.292748	0.887026	9.757282	0.648394
74208.317317	0.497055	116.406250	-413.378906
74208.319318	0.814682	116.406250	-413.378906
74208.321320	0.888189	116.406250	-413.378906
74208.323318	0.885381	9.739185	0.699164
74209.365385	0.409450	322.753906	60.253906
74209.367388	0.747707	322.753906	60.253906
74209.369388	0.889591	322.753906	60.253906
74209.371389	0.886807	9.754881	0.640255
74210.399914	0.794539	121.386719	-405.078125
74210.401916	0.888996	121.386719	-405.078125
74210.403918	0.885953	9.745486	0.729774
74211.445932	0.371173	324.804687	59.375000
74211.447935	0.712856	324.804687	59.375000
74211.449935	0.888925	324.804687	59.375000
74211.451934	0.887420	9.761624	0.634597
74212.486880	0.466506	119.628906	-410.742187
74212.488880	0.793579	119.628906	-410.742187
74212.490881	0.889031	119.628906	-410.742187
74212.492882	0.886003	9.746036	0.660428
74213.527379	0.487653	326.074219	58.007812
74213.529380	0.808650	326.074219	58.007812
74213.533379	0.885893	326.074219	58.007812
74213.535380	0.884197	9.726167	0.661616
74214.569967	0.830145	117.968750	-416.210937
74214.571969	0.887872	117.968750	-416.210937
74214.575968	0.883616	9.719777	0.651948
74215.608558	0.556029	325.683594	56.054687
74215.610561	0.848119	325.683594	56.054687
74215.614558	0.884732	325.683594	56.054687
74215.616560	0.883025	9.713272	0.657176
74216.648606	0.500933	111.914062	-431.640625
74216.650608	0.817071	111.914062	-431.640625
74216.654608	0.884931	111.914062	-431.640625
74216.656608	0.883241	9.715647	0.659896
74217.690662	0.775390	324.218750	53.710937
74217.692666	0.782879	324.218750	53.710937
74217.694664	0.885488	9.740364	0.668538
74218.729171	0.464865	110.546875	-435.253906
74218.731174	0.792417	110.546875	-435.253906
74218.733177	0.888766	110.546875	-435.253906
74218.735176	0.885756	9.743316	0.661143
74219.777216	0.372782	328.417969	54.882812
74219.779218	0.714325	328.417969	54.882812
74219.781218	0.887825	328.417969	54.882812
74219.783218	0.886207	9.748278	0.606449
74220.809741	0.430709	110.839844	-432.714844
74220.811741	0.765735	110.839844	-432.714844
74220.813745	0.889857	110.839844	-432.714844
74220.815748	0.886869	9.755554	0.677411
74221.859804	0.676987	328.027344	54.394531
74221.861808	0.885531	328.027344	54.394531
74221.863809	0.886532	328.027344	54.394531
74221.865809	0.884517	9.729685	0.842892
74222.900350	0.711287	104.296875	-451.367187
74222.902353	0.887870	104.296875	-451.367187
74222.904352	0.886405	9.750450	0.937918
74223.938346	0.300978	326.855469	53.710937
74223.944346	0.887275	326.855469	53.710937
74223.946348	0.885136	326.855469	53.710937
74223.948348	0.883740	9.721142	0.622131
74224.980383	0.587410	108.007812	-438.378906
74224.982387	0.862224	108.007812	-438.378906
74224.984386	0.887708	108.007812	-438.378906
74224.986389	0.885334	9.738671	0.603356
74226.020424	0.528833	326.660156	54.199219
74226.022425	0.833689	326.660156	54.199219
74226.024426	0.887056	326.660156	54.199219
74226.026426	0.884401	9.728409	0.614477
74227.062473	0.797831	105.859375	-443.554687
74227.064475	0.888730	105.859375	-443.554687
74227.066476	0.885696	9.742660	0.625644
74228.100507	0.412086	327.246094	54.589844
74228.102510	0.749910	327.246094	54.589844
74228.104509	0.889475	327.246094	54.589844
74228.106513	0.886661	9.753267	0.630585
74229.140557	0.353803	113.378906	-422.363281
74229.142558	0.696425	113.378906	-422.363281
74229.144559	0.887425	113.378906	-422.363281
74229.146559	0.886999	9.756989	0.646084
74230.190628	0.609095	326.855469	55.859375
74230.192630	0.869592	326.855469	55.859375
74230.194628	0.887205	326.855469	55.859375
74230.196629	0.884929	9.734214	0.578314
74231.224662	0.860341	108.496094	-430.566406
74231.228663	0.884578	108.496094	-430.566406
74231.230664	0.884502	9.729517	0.630708
74232.272731	0.813904	324.804687	56.054687
74232.274733	0.888269	324.804687	56.054687
74232.276732	0.885425	9.739673	0.562225
74233.303290	0.556539	113.476562	-413.964844
74233.305292	0.848485	113.476562	-413.964844
74233.307292	0.887392	113.476562	-413.964844
74233.309293	0.884886	9.733744	0.640052
74234.353334	0.794548	325.878906	56.933594
74234.355335	0.889302	325.878906	56.933594
74234.357333	0.886225	9.748473	0.565428
74235.383901	0.529499	113.574219	-411.035156
74235.385902	0.834282	113.574219	-411.035156
74235.387902	0.887528	113.574219	-411.035156
74235.389903	0.884864	9.733504	0.638872
74236.431937	2.021272	324.316406	57.421875
74236.433939	0.772742	324.316406	57.421875
74236.435937	0.891300	324.316406	57.421875
74236.437940	0.888305	9.771356	0.586221
74237.466012	0.601312	120.019531	-391.894531
74237.468015	0.888515	120.019531	-391.894531
74237.470014	0.885684	9.742527	0.647369
74238.512007	0.316944	328.710937	58.984375
74238.514008	0.661138	328.710937	58.984375
74238.516008	0.882223	328.710937	58.984375
74238.518009	0.886412	328.710937	58.984375
74238.520008	0.884318	9.727496	0.621053
74239.546552	0.717890	103.613281	-430.371094
74239.548552	0.887939	103.613281	-430.371094
74239.550555	0.886185	9.748030	0.646128
74240.602535	0.585073	324.023437	54.882812
74240.604541	0.861034	324.023437	54.882812
74240.606548	0.887153	324.023437	54.882812
74240.608549	0.884787	9.732654	0.539450
74241.628618	0.866610	109.765625	-415.136719
74241.630623	0.887374	109.765625	-415.136719
74241.632627	0.885070	9.735773	0.641641
74242.685154	0.849744	330.273437	54.003906
74242.687157	0.887321	330.273437	54.003906
74242.689155	0.884895	9.733841	0.559109
74243.705712	0.310766	106.152344	-426.660156
74243.707714	0.655286	106.152344	-426.660156
74243.709713	0.881058	106.152344	-426.660156
74243.711713	0.882259	106.152344	-426.660156
74243.713714	0.884161	9.725768	0.664725
74244.763740	0.531991	328.027344	49.804687
74244.765742	0.835880	328.027344	49.804687
74244.767742	0.887996	328.027344	49.804687
74244.769742	0.885400	9.739398	0.564674
74245.797758	0.818047	104.199219	-432.910156
74245.799761	0.887989	104.199219	-432.910156
74245.801763	0.885165	9.736810	0.557556
74246.844374	0.509469	336.914062	51.269531
74246.846377	0.822415	336.914062	51.269531
74246.848376	0.887651	336.914062	51.269531
74246.850376	0.884899	9.733894	0.576007
74247.876374	0.476885	99.414062	-447.167969
74247.878378	0.800870	99.414062	-447.167969
74247.880378	0.888146	99.414062	-447.167969
74247.882376	0.885199	9.737191	0.586207
74248.926404	0.722181	336.035156	49.902344
74248.928408	0.888042	336.035156	49.902344
74248.930414	0.886089	9.746984	0.608523
74249.959014	0.784851	98.535156	-452.539062
74249.961016	0.888801	98.535156	-452.539062
74249.963017	0.885741	9.743147	0.598165
74251.009023	0.887615	334.472656	50.195312
74251.011024	0.886986	334.472656	50.195312
74251.017022	0.882587	9.708460	0.585054
74252.045552	0.383546	101.953125	-445.019531
74252.047555	0.724241	101.953125	-445.019531
74252.049555	0.888826	101.953125	-445.019531
74252.051555	0.886740	9.754136	0.544878
74253.087609	0.669087	335.253906	51.855469
74253.089610	0.883459	335.253906	51.855469
74253.091609	0.886271	335.253906	51.855469
74253.093609	0.884212	9.726335	0.573365
74254.126577	0.427323	103.027344	-442.968750
74254.128578	0.762916	103.027344	-442.968750
74254.130578	0.889552	103.027344	-442.968750
74254.132578	0.886577	9.752346	0.561721
74255.166604	0.365822	328.320312	50.097656
74255.168607	0.707874	328.320312	50.097656
74255.170606	0.714477	328.320312	50.097656
74255.172607	0.887393	9.761324	0.573175
74256.206621	0.298714	102.929687	-441.015625
74256.208624	0.643826	102.929687	-441.015625
74256.210623	0.879263	102.929687	-441.015625
74256.212623	0.886978	102.929687	-441.015625
74256.214624	0.884839	9.733230	0.578048
74257.248621	0.578846	329.199219	51.367187
74257.250625	0.858574	329.199219	51.367187
74257.252624	0.887479	329.199219	51.367187
74257.254622	0.885118	9.736296	0.569811
74258.288627	0.516271	104.882812	-433.300781
74258.290631	0.826900	104.882812	-433.300781
74258.292629	0.888465	104.882812	-433.300781
74258.294629	0.888193	9.770123	0.581115
74259.328644	0.453483	331.152344	51.757812
74259.330646	0.783737	331.152344	51.757812
74259.332648	0.788918	331.152344	51.757812
74259.334648	0.885704	9.742739	0.582149
74260.368674	0.389526	105.273437	-431.933594
74260.370675	0.729770	105.273437	-431.933594
74260.372675	0.888200	105.273437	-431.933594
74260.374674	0.885886	9.744742	0.587637
74261.420714	0.877995	329.394531	51.660156
74261.422715	0.886645	329.394531	51.660156
74261.424715	0.884503	9.729534	0.512933
74262.449234	0.352495	113.574219	-408.300781
74262.451236	0.695045	113.574219	-408.300781
74262.453237	0.886569	113.574219	-408.300781
74262.455238	0.886358	9.749935	0.615143
74263.498167	0.414924	323.437500	49.121094
74263.500167	0.752452	323.437500	49.121094
74263.502167	0.889940	323.437500	49.121094
74263.504168	0.887024	9.757264	0.534246
74264.532604	0.786665	110.156250	-418.261719
74264.534606	0.888929	110.156250	-418.261719
74264.536606	0.885885	9.744733	0.600804
74265.581160	0.783588	331.835937	50.585937
74265.583161	0.888917	331.835937	50.585937
74265.585162	0.885814	9.743954	0.519120
74266.611689	0.509613	102.148437	-440.332031
74266.613690	0.822470	102.148437	-440.332031
74266.615692	0.887349	102.148437	-440.332031
74266.617691	0.884637	9.731006	0.619860
74267.661774	0.763228	333.007812	49.121094
74267.663776	0.888854	333.007812	49.121094
74267.665776	0.885892	9.744813	0.539503
74268.700327	0.457367	99.023437	-448.632812
74268.702329	0.786770	99.023437	-448.632812
74268.704329	0.889129	99.023437	-448.632812
74268.706328	0.886042	9.746461	0.522947
74269.740386	0.400235	334.765625	48.339844
74269.742387	0.739407	334.765625	48.339844
74269.744387	0.888921	334.765625	48.339844
74269.746388	0.886365	9.750015	0.559128
74270.780420	0.339011	97.558594	-450.976562
74270.782423	0.682233	97.558594	-450.976562
74270.784428	0.885447	97.558594	-450.976562
74270.786429	0.886153	9.747684	0.531375
74271.822456	0.621938	337.500000	47.363281
74271.824458	0.873236	337.500000	47.363281
74271.826456	0.886748	337.500000	47.363281
74271.828458	0.884495	9.729445	0.638439
74272.862529	0.570380	91.601562	-463.281250
74272.864531	0.580485	91.601562	-463.281250
74272.866532	0.887294	91.601562	-463.281250
74272.868531	0.884887	9.733753	0.507575
74273.910581	0.481533	333.300781	45.507812
74273.912583	0.804128	333.300781	45.507812
74273.914582	0.888096	333.300781	45.507812
74273.916583	0.885139	9.736526	0.511050
74274.940142	2.825180	97.851562	-442.968750
74274.945489	0.867670	97.851562	-442.968750
74274.949488	0.884841	97.851562	-442.968750
74274.951491	0.883243	9.715673	0.514959
74275.992034	0.596625	339.355469	48.144531
74275.994035	0.865465	339.355469	48.144531
74275.996036	0.887451	339.355469	48.144531
74275.998035	0.885080	9.735880	0.513064
74277.016053	0.601245	105.175781	-418.164062
74277.018054	0.866517	105.175781	-418.164062
74277.020052	0.886478	105.175781	-418.164062
74277.022054	0.884190	9.726087	0.602988
74278.072538	0.553353	338.085937	49.414062
74278.074539	0.846911	338.085937	49.414062
74278.076540	0.887538	338.085937	49.414062
74278.078541	0.885019	9.735207	0.525317
74279.097488	0.714618	106.054687	-412.500000
74279.099489	0.888046	106.054687	-412.500000
74279.101490	0.886371	9.750077	0.609888
74280.152020	0.330401	333.496094	50.000000
74280.154032	0.674042	333.496094	50.000000
74280.156028	0.886309	333.496094	50.000000
74280.158028	0.888590	333.496094	50.000000
74280.162027	0.885076	9.735835	0.552035
74281.184027	0.299000	102.441406	-419.726562
74281.186030	0.643973	102.441406	-419.726562
74281.188029	0.878939	102.441406	-419.726562
74281.190030	0.886632	102.441406	-419.726562
74281.192030	0.884435	9.728781	0.542163
74282.244613	0.870687	325.195312	49.511719
74282.246616	0.886930	325.195312	49.511719
74282.248616	0.884677	9.731449	0.511717
74283.268646	0.871541	100.000000	-424.707031
74283.270647	0.886377	100.000000	-424.707031
74283.274644	0.882588	9.708468	0.605294
74284.314684	0.526728	331.933594	52.734375
74284.316686	0.832654	331.933594	52.734375
74284.318687	0.887375	331.933594	52.734375
74284.320687	0.884775	9.732530	0.530224
74285.346700	0.494946	106.738281	-405.078125
74285.348702	0.813228	106.738281	-405.078125
74285.350702	0.887982	106.738281	-405.078125
74285.352702	0.885186	9.737041	0.556099
74286.395252	0.493163	327.148437	51.269531
74286.397254	0.811817	327.148437	51.269531
74286.399258	0.822655	327.148437	51.269531
74286.401257	0.884569	9.730261	0.539460
74287.427274	0.463221	99.902344	-425.097656
74287.429277	0.791132	99.902344	-425.097656
74287.431276	0.888812	99.902344	-425.097656
74287.433276	0.885808	9.743883	0.600136
74288.475287	0.366776	333.789062	52.734375
74288.477289	0.708574	333.789062	52.734375
74288.483287	0.883893	333.789062	52.734375
74288.485291	0.882470	9.707166	0.541242
74289.517349	0.654448	96.679687	-435.253906
74289.519352	0.881054	96.679687	-435.253906
74289.523349	0.884349	96.679687	-435.253906
74289.525351	0.882896	9.711854	0.690627
74290.569411	0.887200	327.148437	50.390625
74290.571414	0.884854	327.148437	50.390625
74290.573414	0.883266	9.715921	0.454273
74291.597434	0.536899	97.070312	-435.449219
74291.599437	0.838236	97.070312	-435.449219
74291.601436	0.887309	97.070312	-435.449219
74291.603436	0.884775	9.732530	0.529810
74292.645488	0.449288	329.589844	50.000000
74292.647490	0.780583	329.589844	50.000000
74292.649492	0.889718	329.589844	50.000000
74292.651490	0.886607	9.752674	0.456315
74293.679534	0.759537	109.082031	-402.148437
74293.681535	0.888902	109.082031	-402.148437
74293.683536	0.885973	9.745708	0.528390
74294.727529	0.666532	333.593750	50.683594
74294.729530	0.884974	333.593750	50.683594
74294.731531	0.888670	333.593750	50.683594
74294.733530	0.886442	9.750866	0.472810
74295.762055	0.888103	97.949219	-435.156250
74295.764058	0.886159	9.747746	0.552166
74296.808080	2.163280	325.000000	48.339844
74296.810081	0.875340	325.000000	48.339844
74296.812080	0.886757	325.000000	48.339844
74296.814082	0.884577	9.730350	0.569278
74297.842089	0.864602	96.972656	-436.718750
74297.844092	0.886657	96.972656	-436.718750
74297.846091	0.884374	9.728116	0.542163
74298.888116	0.504154	329.589844	48.437500
74298.890119	0.819089	329.589844	48.437500
74298.892118	0.887717	329.589844	48.437500
74298.894119	0.884924	9.734169	0.476585
74299.922159	0.802109	106.152344	-409.960937
74299.924162	0.887972	106.152344	-409.960937
74299.926160	0.884962	9.734586	0.559944
74300.968732	0.479150	337.792969	50.781250
74300.972733	0.887731	337.792969	50.781250
74300.974735	0.884808	337.792969	50.781250
74300.976736	0.883067	9.713741	0.481992
74302.000758	0.448215	110.253906	-398.242187
74302.002760	0.779564	110.253906	-398.242187
74302.004762	0.888564	110.253906	-398.242187
74302.006761	0.885587	9.741454	0.583071
74303.049366	0.453547	327.734375	48.535156
74303.051367	0.783706	327.734375	48.535156
74303.053366	0.888772	327.734375	48.535156
74303.055368	0.885749	9.743244	0.505052
74304.089857	0.472069	94.531250	-439.453125
74304.091857	0.797270	94.531250	-439.453125
74304.093858	0.887708	94.531250	-439.453125
74304.095857	0.884840	9.733239	0.496717
74305.129895	0.412719	331.445312	49.316406
74305.131898	0.750296	331.445312	49.316406
74305.133902	0.889328	331.445312	49.316406
74305.135900	0.889294	9.782229	0.495184
74306.169943	0.351905	98.730469	-425.488281
74306.171944	0.369795	98.730469	-425.488281
74306.173944	0.887043	98.730469	-425.488281
74306.175945	0.886758	9.754339	0.500200
74307.210002	0.294297	331.738281	49.707031
74307.212005	0.639377	331.738281	49.707031
74307.214003	0.877615	331.738281	49.707031
74307.216003	0.886355	331.738281	49.707031
74307.218005	0.884199	9.726185	0.508549
74308.252032	0.578517	94.921875	-432.910156
74308.254035	0.858408	94.921875	-432.910156
74308.256037	0.887265	94.921875	-432.910156
74308.258035	0.884832	9.733150	0.497122
74309.300080	0.491123	332.812500	50.585937
74309.302082	0.810667	332.812500	50.585937
74309.304082	0.887898	332.812500	50.585937
74309.306087	0.885084	9.735925	0.441607
74310.332646	0.553954	93.261719	-435.253906
74310.334649	0.847334	93.261719	-435.253906
74310.336648	0.887598	93.261719	-435.253906
74310.338649	0.885032	9.735348	0.506389
74311.382661	0.788066	335.546875	51.074219
74311.384663	0.889258	335.546875	51.074219
74311.386665	0.886158	9.747737	0.452782
74312.413203	0.519630	93.457031	-431.933594
74312.415205	0.828427	93.457031	-431.933594
74312.419203	0.884730	93.457031	-431.933594
74312.421205	0.882968	9.712643	0.486082
74313.461222	0.424768	334.570312	50.683594
74313.463225	0.760688	334.570312	50.683594
74313.465230	0.889928	334.570312	50.683594
74313.467229	0.886848	9.755332	0.463809
74314.495750	0.804392	101.562500	-408.203125
74314.497752	0.887760	101.562500	-408.203125
74314.499753	0.884844	9.733283	0.484467
74315.543748	0.721885	330.468750	48.535156
74315.545748	0.888440	330.468750	48.535156
74315.547747	0.886533	9.751867	0.886759
74316.577721	0.886443	87.890625	-446.679687
74316.579725	0.887096	87.890625	-446.679687
74316.581723	0.885103	9.736128	0.500689
74317.623727	0.589292	340.625000	49.023437
74317.625729	0.862211	340.625000	49.023437
74317.627728	0.886579	340.625000	49.023437
74317.629729	0.884270	9.726974	0.506658
74318.656298	0.653553	88.281250	-446.972656
74318.660298	0.886630	88.281250	-446.972656
74318.662305	0.884452	88.281250	-446.972656
74318.664310	0.883024	9.713264	0.670551
74319.706374	0.853598	341.699219	47.070312
74319.708374	0.886879	341.699219	47.070312
74319.710375	0.884502	9.729517	0.503752
74320.736908	0.625882	86.230469	-454.687500
74320.738909	0.874067	86.230469	-454.687500
74320.740910	0.886426	86.230469	-454.687500
74320.742910	0.884256	9.726813	0.591693
74321.792975	0.508044	335.253906	43.750000
74321.794976	0.821671	335.253906	43.750000
74321.796978	0.887889	335.253906	43.750000
74321.798976	0.885081	9.735888	0.443216
74322.817019	0.515657	91.796875	-441.308594
74322.819020	0.826109	91.796875	-441.308594
74322.821020	0.887566	91.796875	-441.308594
74322.823021	0.884875	9.733629	0.492260
74323.873018	0.383641	335.839844	42.773437
74323.875019	0.724340	335.839844	42.773437
74323.877018	0.889170	335.839844	42.773437
74323.879020	0.887103	9.758133	0.446290
74324.897092	0.397005	95.214844	-431.250000
74324.901091	0.888811	95.214844	-431.250000
74324.903101	0.886297	95.214844	-431.250000
74324.905104	0.884456	9.729020	0.515132
74325.955119	0.612285	343.164062	43.066406
74325.957121	0.870310	343.164062	43.066406
74325.959121	0.886748	343.164062	43.066406
74325.961122	0.884524	9.729765	0.493235
74326.988037	0.733612	85.449219	-464.453125
74326.990039	0.888115	85.449219	-464.453125
74326.992039	0.885735	9.743085	0.463602
74328.040030	0.887180	332.031250	40.820312
74328.042031	0.885012	9.735136	0.561986
74329.068089	0.615322	99.511719	-423.242187
74329.070093	0.871451	99.511719	-423.242187
74329.072092	0.886906	99.511719	-423.242187
74329.076090	0.883150	9.714645	0.473387
74330.116115	0.520590	335.644531	42.285156
74330.120115	0.887511	335.644531	42.285156
74330.122116	0.884910	335.644531	42.285156
74330.124118	0.883242	9.715665	0.431852
74331.148146	0.493016	97.070312	-430.078125
74331.150148	0.812050	97.070312	-430.078125
74331.152148	0.888254	97.070312	-430.078125
74331.154148	0.885360	9.738955	0.475873
74332.196689	0.485864	340.527344	43.652344
74332.198688	0.807026	340.527344	43.652344
74332.200689	0.887717	340.527344	43.652344
74332.202689	0.884833	9.733159	0.455921
74333.229207	0.542068	92.675781	-443.652344
74333.231210	0.841353	92.675781	-443.652344
74333.233214	0.887976	92.675781	-443.652344
74333.235208	0.887677	9.764452	0.488744
74334.277316	0.462686	338.281250	43.066406
74334.279318	0.790502	338.281250	43.066406
74334.281317	0.888466	338.281250	43.066406
74334.283318	0.885461	9.740071	0.444582
74335.309338	0.432393	104.101562	-410.449219
74335.311339	0.766912	104.101562	-410.449219
74335.313339	0.889290	104.101562	-410.449219
74335.315339	0.886285	9.749138	0.521223
74336.357346	0.335450	333.789062	42.480469
74336.359373	0.678724	333.789062	42.480469
74336.361376	0.884818	333.789062	42.480469
74336.363374	0.885753	333.789062	42.480469
74336.365374	0.883728	9.721009	0.469792
74337.391393	0.651941	103.222656	-411.523437
74337.393393	0.880944	103.222656	-411.523437
74337.395395	0.886916	103.222656	-411.523437
74337.397393	0.884747	9.732220	0.675556
74338.439402	0.556135	339.941406	44.140625
74338.441404	0.848145	339.941406	44.140625
74338.443402	0.887362	339.941406	44.140625
74338.445402	0.884888	9.733770	0.448545
74339.477466	0.885163	91.308594	-444.824219
74339.479468	0.883641	9.720052	0.512966
74340.521500	0.776164	342.578125	43.261719
74340.523503	0.889104	342.578125	43.261719
74340.525502	0.886042	9.746461	0.455102
74341.562049	0.794980	91.992187	-443.261719
74341.564051	0.799123	91.992187	-443.261719
74341.566051	0.885608	9.741693	0.446476
74342.600076	0.407456	340.039062	42.773437
74342.602078	0.745670	340.039062	42.773437
74342.604077	0.888740	340.039062	42.773437
74342.606077	0.886051	9.746559	0.465546
74343.640123	0.348337	89.746094	-447.949219
74343.642128	0.691058	89.746094	-447.949219
74343.644127	0.885980	89.746094	-447.949219
74343.646127	0.886033	9.746364	0.451655
74344.682160	0.632023	340.722656	41.992187
74344.684162	0.875691	340.722656	41.992187
74344.686162	0.886274	340.722656	41.992187
74344.688162	0.884095	9.725041	0.477804
74345.722190	0.572049	84.472656	-459.863281
74345.724193	0.855137	84.472656	-459.863281
74345.726193	0.886657	84.472656	-459.863281
74345.730190	0.882694	9.709639	0.449763
74346.762272	0.520970	343.359375	41.308594
74346.764274	0.829147	343.359375	41.308594
74346.766274	0.887152	343.359375	41.308594
74346.768273	0.884478	9.729259	0.486243
74347.802349	0.468707	85.839844	-453.417969
74347.804351	0.794850	85.839844	-453.417969
74347.806350	0.887694	85.839844	-453.417969
74347.808349	0.884764	9.732406	0.440363
74348.850374	0.373192	340.527344	41.503906
74348.852375	0.714515	340.527344	41.503906
74348.854376	0.887455	340.527344	41.503906
74348.856375	0.885846	9.744308	0.434817
74349.882418	0.347635	92.871094	-428.222656
74349.884421	0.690336	92.871094	-428.222656
74349.886420	0.885611	92.871094	-428.222656
74349.888421	0.885759	9.743351	0.435134
74350.932469	0.598589	340.429687	41.699219
74350.934469	0.865963	340.429687	41.699219
74350.936470	0.886958	340.429687	41.699219
74350.938469	0.884659	9.731245	0.432773
74351.956491	0.603238	90.136719	-433.203125
74351.958493	0.867008	90.136719	-433.203125
74351.960492	0.886251	90.136719	-433.203125
74351.962494	0.884000	9.724004	0.535412
74353.012525	0.479933	336.914062	41.601562
74353.014525	0.803009	336.914062	41.601562
74353.016526	0.888367	336.914062	41.601562
74353.018525	0.885499	9.740488	0.467884
74354.044989	0.525967	83.007812	-450.976562
74354.046988	0.832253	83.007812	-450.976562
74354.048990	0.887818	83.007812	-450.976562
74354.050988	0.885145	9.736598	0.447275
74355.097002	0.888406	344.433594	44.628906
74355.099004	0.885510	9.740612	0.459090
74356.125497	0.482290	84.082031	-443.554687
74356.127500	0.804313	84.082031	-443.554687
74356.129500	0.887317	84.082031	-443.554687
74356.133497	0.882717	9.709887	0.453283
74357.175528	0.728552	344.238281	45.605469
74357.177531	0.888792	344.238281	45.605469
74357.179529	0.886508	9.751584	0.465164
74358.206082	0.450813	85.742187	-434.863281
74358.210082	0.889612	85.742187	-434.863281
74358.212084	0.886478	85.742187	-434.863281
74358.214086	0.884787	9.732654	0.470421
74359.256090	0.692861	335.156250	44.726562
74359.258093	0.886304	335.156250	44.726562
74359.260093	0.886207	9.748278	0.458789
74360.288112	0.664750	85.351562	-433.398437
74360.290114	0.882947	85.351562	-433.398437
74360.292116	0.886571	85.351562	-433.398437
74360.294114	0.884548	9.730031	0.470871
74361.336181	0.579123	341.699219	47.070312
74361.338184	0.858736	341.699219	47.070312
74361.340183	0.887403	341.699219	47.070312
74361.342183	0.885035	9.735383	0.465164
74362.370752	0.878606	90.234375	-419.433594
74362.372754	0.886355	90.234375	-419.433594
74362.374753	0.884201	9.726211	0.621413
74363.418802	0.846673	343.750000	47.363281
74363.420804	0.887186	343.750000	47.363281
74363.422804	0.884732	9.732052	0.448677
74364.447309	0.260498	96.093750	-401.953125
74364.449309	0.607222	96.093750	-401.953125
74364.451312	0.868563	96.093750	-401.953125
74364.453309	0.886484	96.093750	-401.953125
74364.457308	0.882678	9.709461	0.497065
74365.497353	0.518075	341.015625	47.363281
74365.499355	0.827577	341.015625	47.363281
74365.501355	0.887445	341.015625	47.363281
74365.503355	0.884785	9.732636	0.457304
74366.537365	0.454633	91.699219	-415.820312
74366.539368	0.784526	91.699219	-415.820312
74366.541367	0.889067	91.699219	-415.820312
74366.543368	0.885973	9.745708	0.434509
74367.579433	0.738912	342.187500	46.777344
74367.581434	0.888178	342.187500	46.777344
74367.583433	0.885634	9.741977	0.462417
74368.617451	0.335732	90.527344	-418.554687
74368.619465	0.678959	90.527344	-418.554687
74368.621469	0.884815	90.527344	-418.554687
74368.623471	0.885931	90.527344	-418.554687
74368.625472	0.883850	9.722347	0.434531
74369.667503	0.589974	340.917969	46.679687
74369.669505	0.862436	340.917969	46.679687
74369.671504	0.886523	340.917969	46.679687
74369.673504	0.884236	9.726592	0.396533
74370.698068	0.309231	88.085937	-424.218750
74370.700070	0.653707	88.085937	-424.218750
74370.702070	0.880551	88.085937	-424.218750
74370.704070	0.886056	88.085937	-424.218750
74370.706070	0.883992	9.723907	0.459203
74371.748095	0.559529	337.988281	45.996094
74371.750097	0.849552	337.988281	45.996094
74371.752097	0.886969	337.988281	45.996094
74371.754099	0.884589	9.730482	0.394451
74372.780146	0.535471	89.160156	-421.484375
74372.782148	0.546873	89.160156	-421.484375
74372.784147	0.887213	89.160156	-421.484375
74372.786148	0.884601	9.730606	0.445108
74373.828152	0.437858	341.894531	46.484375
74373.830155	0.771524	341.894531	46.484375
74373.834153	0.886773	341.894531	46.484375
74373.836155	0.884958	9.734542	0.423109
74374.863110	0.853645	87.011719	-427.148437
74374.865110	0.886902	87.011719	-427.148437
74374.867112	0.884506	9.729561	0.435464
74375.909633	0.560062	342.382812	46.777344
74375.911634	0.849980	342.382812	46.777344
74375.913641	0.887119	342.382812	46.777344
74375.917646	0.883025	9.713272	0.395273
74376.940571	0.344939	99.804687	-387.792969
74376.942574	0.687732	99.804687	-387.792969
74376.944572	0.885940	99.804687	-387.792969
74376.946572	0.886387	9.750255	0.462884
74377.994587	0.886317	332.617187	44.433594
74377.996590	0.884094	332.617187	44.433594
74377.998590	0.882436	9.706794	0.425220
74379.022599	0.560835	98.925781	-389.843750
74379.024599	0.850291	98.925781	-389.843750
74379.026602	0.886987	98.925781	-389.843750
74379.028601	0.884458	9.729038	0.475901
74380.071546	0.622667	345.214844	46.875000
74380.073547	0.873287	345.214844	46.875000
74380.075546	0.886529	345.214844	46.875000
74380.077546	0.884246	9.726707	0.434334
74381.104119	0.686985	96.582031	-395.019531
74381.106123	0.885885	96.582031	-395.019531
74381.108122	0.886270	9.748969	0.760667
74382.153135	0.758260	334.960937	44.628906
74382.155137	0.888340	334.960937	44.628906
74382.157139	0.885493	9.740417	0.434422
74383.183613	0.471106	96.582031	-392.187500
74383.185614	0.796479	96.582031	-392.187500
74383.187616	0.887453	96.582031	-392.187500
74383.189617	0.884566	9.730226	0.466512
74384.234519	0.833024	335.546875	44.824219
74384.236520	0.887043	335.546875	44.824219
74384.238520	0.884442	9.728861	0.440848
74385.264582	0.505679	85.742187	-422.558594
74385.266585	0.820545	85.742187	-422.558594
74385.268594	0.889145	85.742187	-422.558594
74385.270598	0.886185	9.748030	0.481243
74386.321070	0.457454	334.082031	43.750000
74386.323072	0.786696	334.082031	43.750000
74386.325073	0.888629	334.082031	43.750000
74386.327074	0.888491	9.773403	0.405213
74387.345082	0.460213	92.578125	-402.832031
74387.347087	0.788724	92.578125	-402.832031
74387.349091	0.888408	92.578125	-402.832031
74387.351093	0.885381	9.739194	0.465949
74388.403684	0.765702	336.718750	42.968750
74388.405688	0.888338	336.718750	42.968750
74388.407688	0.885368	9.739043	0.402220
74389.425647	0.424877	86.230469	-421.679687
74389.427650	0.760750	86.230469	-421.679687
74389.429650	0.889294	86.230469	-421.679687
74389.431650	0.886263	9.748899	0.473042
74390.483649	0.631853	339.355469	42.187500
74390.485650	0.875876	339.355469	42.187500
74390.487651	0.886655	339.355469	42.187500
74390.489651	0.884481	9.729295	0.525153
74391.505689	0.295695	88.378906	-416.308594
74391.507691	0.640746	88.378906	-416.308594
74391.509691	0.878474	88.378906	-416.308594
74391.511691	0.887000	88.378906	-416.308594
74391.513691	0.884837	9.733204	0.480775
74392.563761	0.523060	349.902344	42.187500
74392.565764	0.830404	349.902344	42.187500
74392.567764	0.887347	349.902344	42.187500
74392.569765	0.884672	9.731386	0.406767
74393.586715	0.343790	95.214844	-398.925781
74393.590714	0.886454	95.214844	-398.925781
74393.592714	0.886936	95.214844	-398.925781
74393.594715	0.884952	9.734470	0.475239
74394.646729	0.849272	343.750000	39.941406
74394.648734	0.887292	343.750000	39.941406
74394.650733	0.884845	9.733292	0.417579
74395.676770	0.532331	88.671875	-419.628906
74395.678769	0.835513	88.671875	-419.628906
74395.680769	0.886880	88.671875	-419.628906
74395.682769	0.884222	9.726441	0.414765
74396.724793	0.438852	341.015625	38.476562
74396.726797	0.772212	341.015625	38.476562
74396.728804	0.889260	341.015625	38.476562
74396.730803	0.886260	9.748863	0.432113
74397.759298	0.811468	88.476562	-422.363281
74397.761299	0.888093	88.476562	-422.363281
74397.763298	0.885220	9.737422	0.415548
74398.807854	0.808063	353.222656	39.453125
74398.809855	0.887829	353.222656	39.453125
74398.811855	0.884959	9.734550	0.410969
74399.836837	0.277848	91.796875	-413.964844
74399.838839	0.623706	91.796875	-413.964844
74399.840839	0.873944	91.796875	-413.964844
74399.842839	0.886911	91.796875	-413.964844
74399.844840	0.884722	9.731945	0.445821
74400.888813	0.829086	340.625000	37.402344
74400.890815	0.887177	340.625000	37.402344
74400.892815	0.884485	9.729330	0.408286
74401.922886	0.887946	93.359375	-411.328125
74401.924890	0.885036	93.359375	-411.328125
74401.926888	0.883373	9.717100	0.437371
74402.968877	0.738085	342.968750	37.792969
74402.970879	0.887921	342.968750	37.792969
74402.972881	0.885452	9.739974	0.432481
74403.998891	0.369853	96.093750	-404.492187
74404.002893	0.887602	96.093750	-404.492187
74404.004894	0.886215	96.093750	-404.492187
74404.006893	0.884323	9.727549	0.451655
74405.048900	0.616029	352.832031	39.941406
74405.050901	0.871380	352.832031	39.941406
74405.052902	0.886530	352.832031	39.941406
74405.054903	0.884360	9.727965	0.424421
74406.089408	0.637164	88.378906	-427.343750
74406.091412	0.877380	88.378906	-427.343750
74406.093411	0.886633	88.378906	-427.343750
74406.095412	0.884502	9.729526	0.399910
74407.127969	0.321343	346.386719	38.964844
74407.129972	0.665200	346.386719	38.964844
74407.131973	0.882323	346.386719	38.964844
74407.133972	0.885756	346.386719	38.964844
74407.135971	0.883664	9.720308	0.428769
