time (s)	coil I (A)	last det (V)	int current (uC)
426394.160996	0.486811	100.976562	-400.097656
426394.162998	0.804430	100.976562	-400.097656
426394.164998	0.883624	100.976562	-400.097656
426394.166998	0.880430	9.684727	0.160571
426395.243056	0.608976	344.921875	51.074219
426395.245057	0.865601	344.921875	51.074219
426395.247058	0.882130	344.921875	51.074219
426395.249057	0.879547	9.675014	0.190055
426396.225062	0.434128	105.664062	-381.250000
426396.227064	0.765287	105.664062	-381.250000
426396.229065	0.884118	105.664062	-381.250000
426396.233064	0.878905	9.667951	0.201326
426397.307047	0.539675	356.152344	48.925781
426397.309046	0.836250	356.152344	48.925781
426397.311047	0.882445	356.152344	48.925781
426397.313047	0.879625	9.675873	0.176669
426398.327054	0.882414	105.175781	-399.218750
426398.329055	0.879647	105.175781	-399.218750
426398.331057	0.878172	9.659894	0.162207
426399.403614	0.443690	347.070312	48.144531
426399.407616	0.887806	347.070312	48.144531
426399.409618	0.884899	347.070312	48.144531
426399.411617	0.883031	9.713343	0.162067
426400.421683	0.804145	100.488281	-441.992187
426400.423685	0.882602	100.488281	-441.992187
426400.425684	0.879555	9.675102	0.138975
426401.471688	0.883198	361.816406	45.605469
426401.473689	0.880667	9.687332	0.159567
426402.484203	0.509900	112.988281	-399.218750
426402.486206	0.819258	112.988281	-399.218750
426402.488207	0.882814	112.988281	-399.218750
426402.490206	0.879829	9.678115	0.198023
426403.564237	0.282135	339.062500	49.511719
426403.566240	0.625389	339.062500	49.511719
426403.568242	0.869873	339.062500	49.511719
426403.570248	0.881342	339.062500	49.511719
426403.572252	0.878983	9.668818	0.145699
426404.580256	0.321043	114.062500	-408.691406
426404.582260	0.662194	114.062500	-408.691406
426404.584261	0.877903	114.062500	-408.691406
426404.586260	0.881203	114.062500	-408.691406
426404.588260	0.879028	9.669306	0.185478
426405.632279	0.849558	348.535156	50.878906
426405.634280	0.881269	348.535156	50.878906
426405.636280	0.878747	9.666222	0.174161
426406.678794	0.557842	112.011719	-419.335937
426406.680796	0.844636	112.011719	-419.335937
426406.682797	0.881076	112.011719	-419.335937
426406.684796	0.878511	9.663616	0.143405
426407.728805	0.787759	326.171875	55.273437
426407.730807	0.882683	326.171875	55.273437
426407.732812	0.879490	9.674393	0.142987
426408.742889	0.509089	117.089844	-385.449219
426408.744892	0.818504	117.089844	-385.449219
426408.746891	0.882316	117.089844	-385.449219
426408.748893	0.879321	9.672532	0.180271
426409.790904	0.415276	342.773437	55.761719
426409.792906	0.749227	342.773437	55.761719
426409.794906	0.883212	342.773437	55.761719
426409.796906	0.880121	9.681333	0.190128
426410.841433	0.742232	113.476562	-392.871094
426410.843432	0.882760	113.476562	-392.871094
426410.845433	0.882769	9.710463	0.146293
426411.890403	0.795480	317.285156	60.546875
426411.892404	0.882820	317.285156	60.546875
426411.894407	0.879691	9.676600	0.163410
426412.906873	0.856624	108.593750	-404.785156
426412.908873	0.881035	108.593750	-404.785156
426412.912874	0.877105	9.648151	0.166550
426413.986890	0.699144	310.644531	61.425781
426413.988892	0.881678	310.644531	61.425781
426413.990892	0.880510	9.685613	0.150738
426415.000954	0.405499	106.445312	-404.589844
426415.002957	0.740803	106.445312	-404.589844
426415.004956	0.883175	106.445312	-404.589844
426415.006955	0.880314	9.683459	0.147535
426416.051023	0.658655	333.496094	59.472656
426416.053025	0.876977	333.496094	59.472656
426416.055025	0.880754	333.496094	59.472656
426416.057026	0.878564	9.664202	0.191110
426417.065582	0.447577	102.636719	-418.847656
426417.067582	0.775951	102.636719	-418.847656
426417.069583	0.884247	102.636719	-418.847656
426417.071583	0.881007	9.691081	0.176615
426418.147643	0.567327	315.527344	60.742187
426418.149649	0.849692	315.527344	60.742187
426418.151647	0.882300	315.527344	60.742187
426418.155645	0.878105	9.659149	0.158123
426419.163732	0.616426	100.000000	-432.128906
426419.167733	0.881010	100.000000	-432.128906
426419.169734	0.878642	100.000000	-432.128906
426419.171735	0.877165	9.648816	0.144437
426420.244286	0.482403	312.890625	59.960937
426420.246289	0.801226	312.890625	59.960937
426420.248288	0.882550	312.890625	59.960937
426420.250290	0.879523	9.674757	0.138668
426421.228304	0.646689	102.050781	-425.976562
426421.230307	0.875258	102.050781	-425.976562
426421.232307	0.881520	102.050781	-425.976562
426421.234313	0.881331	9.694643	0.182675
426422.308387	0.435073	322.656250	57.421875
426422.310388	0.766091	322.656250	57.421875
426422.312389	0.884430	322.656250	57.421875
426422.314389	0.881223	9.693456	0.166772
426423.324454	0.478879	98.828125	-443.847656
426423.326455	0.798593	98.828125	-443.847656
426423.328456	0.881988	98.828125	-443.847656
426423.330457	0.878975	9.668730	0.149820
426424.405382	0.408385	319.238281	56.738281
426424.407386	0.743368	319.238281	56.738281
426424.409384	0.883154	319.238281	56.738281
426424.411384	0.880165	9.681810	0.143138
426425.421883	0.524249	90.527344	-481.542969
426425.423881	0.827428	90.527344	-481.542969
426425.425883	0.882118	90.527344	-481.542969
426425.427882	0.879246	9.671708	0.131029
426426.471928	0.766017	331.347656	55.566406
426426.473929	0.883017	331.347656	55.566406
426426.475930	0.879804	9.677850	0.183728
426427.486434	0.551840	96.484375	-460.742187
426427.488435	0.841718	96.484375	-460.742187
426427.490434	0.881053	96.484375	-460.742187
426427.492436	0.878507	9.663572	0.170134
426428.566506	0.335972	314.550781	56.835937
426428.568521	0.676365	314.550781	56.835937
426428.570526	0.880107	314.550781	56.835937
426428.574523	0.878663	314.550781	56.835937
426428.576531	0.877322	9.650545	0.147693
426429.584594	0.723509	92.675781	-476.855469
426429.586597	0.883140	92.675781	-476.855469
426429.588599	0.880773	9.688501	0.133775
426430.631159	0.383859	329.882812	55.175781
426430.633163	0.721527	329.882812	55.175781
426430.635162	0.883913	329.882812	55.175781
426430.637161	0.881629	9.697914	0.184420
426431.647208	0.423629	95.898437	-466.601562
426431.649206	0.756574	95.898437	-466.601562
426431.651209	0.884412	95.898437	-466.601562
426431.653208	0.881194	9.693136	0.173912
426432.729226	0.537633	311.035156	57.812500
426432.731230	0.835093	311.035156	57.812500
426432.733228	0.882261	311.035156	57.812500
426432.735228	0.879466	9.674128	0.155840
426433.745253	0.573899	90.136719	-489.062500
426433.747256	0.852294	90.136719	-489.062500
426433.749254	0.881770	90.136719	-489.062500
426433.751256	0.879189	9.671079	0.145298
426434.825329	0.357788	302.246094	58.691406
426434.827330	0.697249	302.246094	58.691406
426434.829331	0.881539	302.246094	58.691406
426434.831331	0.880573	9.686304	0.130840
426435.809365	0.528159	96.582031	-463.281250
426435.811367	0.829737	96.582031	-463.281250
426435.813366	0.881980	96.582031	-463.281250
426435.817366	0.877595	9.653540	0.172866
426436.891434	0.648951	319.042969	58.203125
426436.893438	0.875319	319.042969	58.203125
426436.895436	0.881014	319.042969	58.203125
426436.897437	0.878710	9.665814	0.395089
426437.905464	0.348843	97.265625	-462.011719
426437.907466	0.688674	97.265625	-462.011719
426437.909466	0.881440	97.265625	-462.011719
426437.911467	0.881257	9.693829	0.150674
426438.987412	0.452392	303.417969	61.035156
426438.989414	0.779987	303.417969	61.035156
426438.991415	0.885572	303.417969	61.035156
426438.993416	0.882520	9.707716	0.135778
426439.973963	0.881459	104.199219	-431.738281
426439.975964	0.879886	9.678744	0.184440
426441.050913	0.298598	309.277344	61.718750
426441.052914	0.640854	309.277344	61.718750
426441.054915	0.874282	309.277344	61.718750
426441.056915	0.882076	309.277344	61.718750
426441.058914	0.879667	9.676334	0.166871
426442.066949	0.338988	92.968750	-477.832031
426442.070962	0.881146	92.968750	-477.832031
426442.072963	0.881797	92.968750	-477.832031
426442.074962	0.879589	9.675474	0.161048
426443.149046	0.469423	298.828125	63.964844
426443.151047	0.792056	298.828125	63.964844
426443.153052	0.882536	298.828125	63.964844
426443.155054	0.879388	9.673267	0.147859
426444.164025	0.325804	90.429687	-490.527344
426444.166026	0.666756	90.429687	-490.527344
426444.168028	0.879029	90.429687	-490.527344
426444.170026	0.881809	90.429687	-490.527344
426444.172026	0.879501	9.674508	0.135284
426445.214090	0.578301	300.000000	65.527344
426445.216091	0.854126	300.000000	65.527344
426445.218092	0.881736	300.000000	65.527344
426445.220091	0.879199	9.671185	0.178773
426446.230146	0.621831	105.175781	-438.085937
426446.232149	0.869135	105.175781	-438.085937
426446.234149	0.881608	105.175781	-438.085937
426446.236150	0.879203	9.671238	0.285477
426447.310219	0.408009	286.035156	67.382812
426447.312221	0.743431	286.035156	67.382812
426447.314220	0.886389	286.035156	67.382812
426447.316220	0.883768	9.721443	0.143287
426448.326248	0.444524	102.050781	-455.371094
426448.328251	0.773958	102.050781	-455.371094
426448.330248	0.886508	102.050781	-455.371094
426448.332249	0.883524	9.718766	0.142281
426449.375207	0.508384	297.558594	66.699219
426449.377211	0.520800	297.558594	66.699219
426449.379211	0.882080	297.558594	66.699219
426449.381208	0.879196	9.671159	0.181322
426450.423799	0.513475	96.679687	-482.421875
426450.425800	0.822156	96.679687	-482.421875
426450.427801	0.884774	96.679687	-482.421875
426450.429805	0.881794	9.699739	0.127352
426451.473828	0.753731	284.863281	67.089844
426451.475829	0.883246	284.863281	67.089844
426451.477830	0.880082	9.680906	0.144989
426452.488367	0.544187	107.128906	-452.246094
426452.490371	0.838462	107.128906	-452.246094
426452.492374	0.882101	107.128906	-452.246094
426452.494373	0.879349	9.672842	0.151830
426453.536396	0.450763	291.503906	65.234375
426453.538397	0.778524	291.503906	65.234375
426453.540398	0.884454	291.503906	65.234375
426453.542398	0.881156	9.692720	0.168587
426454.584421	0.356158	104.492187	-465.917969
426454.586422	0.695541	104.492187	-465.917969
426454.588423	0.882111	104.492187	-465.917969
426454.590423	0.881460	9.696061	0.142417
426455.640472	0.878363	283.105469	63.769531
426455.642477	0.876844	9.645289	0.181430
426456.651059	0.736140	106.933594	-460.351562
426456.653060	0.882969	106.933594	-460.351562
426456.655060	0.880172	9.681890	0.174948
426457.697546	0.385280	296.386719	61.132812
426457.699549	0.722802	296.386719	61.132812
426457.701547	0.883592	296.386719	61.132812
426457.703549	0.881193	9.693128	0.163303
426458.747567	0.629979	106.054687	-466.015625
426458.749570	0.871053	106.054687	-466.015625
426458.751570	0.881197	106.054687	-466.015625
426458.753569	0.878828	9.667109	0.296749
426459.794512	0.353550	292.285156	59.765625
426459.800512	0.882060	292.285156	59.765625
426459.802515	0.879801	292.285156	59.765625
426459.806516	0.877509	9.652601	0.139644
426460.811094	0.485866	112.109375	-446.679687
426460.813096	0.803469	112.109375	-446.679687
426460.815096	0.807671	112.109375	-446.679687
426460.817096	0.879185	9.671035	0.181949
426461.859117	0.391426	310.156250	57.324219
426461.861120	0.728392	310.156250	57.324219
426461.863121	0.883884	310.156250	57.324219
426461.867117	0.879303	9.672328	0.182044
426462.909158	0.637469	96.289062	-486.523437
426462.911160	0.872473	96.289062	-486.523437
426462.913160	0.880662	96.289062	-486.523437
426462.915157	0.878457	9.663023	0.313489
426463.959200	0.840144	299.316406	57.031250
426463.961202	0.881753	299.316406	57.031250
426463.963203	0.879078	9.669856	0.146282
426464.971696	0.324620	96.191406	-483.886719
426464.973699	0.665543	96.191406	-483.886719
426464.975697	0.877989	96.191406	-483.886719
426464.977698	0.880651	96.191406	-483.886719
426464.979698	0.878479	9.663271	0.175379
426466.053725	0.443649	281.933594	59.472656
426466.055727	0.773456	281.933594	59.472656
426466.057726	0.886927	281.933594	59.472656
426466.059726	0.884025	9.724278	0.136888
426467.073702	0.882284	84.277344	-508.789062
426467.075705	0.879280	84.277344	-508.789062
426467.077705	0.877578	9.653354	0.135934
426468.117728	0.377830	301.855469	58.496094
426468.119729	0.715943	301.855469	58.496094
426468.121730	0.883732	301.855469	58.496094
426468.123730	0.881825	9.700076	0.169910
426469.134677	0.570206	92.089844	-490.039062
426469.136680	0.850344	92.089844	-490.039062
426469.138678	0.880895	92.089844	-490.039062
426469.140679	0.878438	9.662819	0.169079
426470.214725	0.350122	287.207031	60.839844
426470.216727	0.689832	287.207031	60.839844
426470.218728	0.880723	287.207031	60.839844
426470.220728	0.880358	9.683938	0.147270
426471.232757	0.727271	87.304687	-501.269531
426471.234760	0.882393	87.304687	-501.269531
426471.236759	0.879801	9.677814	0.142274
426472.317293	0.881862	276.562500	62.890625
426472.321295	0.877825	276.562500	62.890625
426472.323296	0.876674	9.643411	0.121483
426473.295843	0.510154	90.722656	-490.820312
426473.297844	0.819065	90.722656	-490.820312
426473.299844	0.881995	90.722656	-490.820312
426473.301844	0.879062	9.669687	0.169231
426474.375870	0.280554	282.128906	62.207031
426474.377873	0.623768	282.128906	62.207031
426474.379875	0.869450	282.128906	62.207031
426474.381874	0.881316	282.128906	62.207031
426474.383875	0.878968	9.668650	0.151338
426475.393929	0.667717	89.453125	-495.800781
426475.395931	0.878246	89.453125	-495.800781
426475.397930	0.880590	89.453125	-495.800781
426475.399932	0.878423	9.662651	0.146612
426476.474473	0.532408	272.070312	64.160156
426476.476475	0.832157	272.070312	64.160156
426476.478476	0.882107	272.070312	64.160156
426476.480475	0.879277	9.672045	0.125897
426477.490544	0.576069	76.464844	-523.437500
426477.492545	0.852943	76.464844	-523.437500
426477.496544	0.881135	76.464844	-523.437500
426477.498547	0.877207	9.649278	0.118073
426478.538532	0.478094	286.132812	62.402344
426478.540535	0.798055	286.132812	62.402344
426478.542536	0.882133	286.132812	62.402344
426478.544535	0.878980	9.668775	0.155126
426479.554515	0.506453	84.179687	-507.714844
426479.556517	0.816875	84.179687	-507.714844
426479.558518	0.882134	84.179687	-507.714844
426479.560516	0.879196	9.671159	0.148445
426480.636552	0.622914	273.632812	63.085937
426480.638553	0.869300	273.632812	63.085937
426480.640551	0.881374	273.632812	63.085937
426480.642552	0.878993	9.668925	0.238382
426481.650579	0.320479	85.644531	-504.296875
426481.652582	0.661660	85.644531	-504.296875
426481.654580	0.877071	85.644531	-504.296875
426481.656581	0.880259	85.644531	-504.296875
426481.658581	0.880159	9.681748	0.123830
426482.701545	0.726445	289.160156	61.035156
426482.705547	0.880210	289.160156	61.035156
426482.709547	0.876990	9.646894	0.155425
426483.716465	0.576074	89.453125	-495.898437
426483.720465	0.880542	89.453125	-495.898437
426483.722466	0.878239	89.453125	-495.898437
426483.724467	0.876645	9.643091	0.158952
426484.798499	0.693010	267.187500	62.304687
426484.800501	0.701518	267.187500	62.304687
426484.802499	0.881376	9.695140	0.558863
426485.812466	0.382239	86.035156	-503.613281
426485.814466	0.719605	86.035156	-503.613281
426485.816466	0.881968	86.035156	-503.613281
426485.818467	0.879738	9.677114	0.132188
426486.862498	0.628614	276.367187	61.816406
426486.864501	0.870823	276.367187	61.816406
426486.866503	0.881355	276.367187	61.816406
426486.868503	0.879015	9.669164	0.282665
426487.910566	0.543536	87.500000	-501.660156
426487.912566	0.838235	87.500000	-501.660156
426487.914567	0.882413	87.500000	-501.660156
426487.916568	0.879634	9.675980	0.118248
426488.961102	0.834289	270.507812	62.695312
426488.963104	0.882166	270.507812	62.695312
426488.965106	0.882033	9.702362	0.114723
426489.975087	0.562795	96.386719	-486.816406
426489.977087	0.847478	96.386719	-486.816406
426489.979088	0.881806	96.386719	-486.816406
426489.981088	0.879166	9.670831	0.153482
426491.025199	0.804451	275.097656	64.453125
426491.027206	0.883178	275.097656	64.453125
426491.029208	0.879968	9.679648	0.145551
426492.071730	0.475579	90.917969	-497.460937
426492.073732	0.796231	90.917969	-497.460937
426492.075731	0.882109	90.917969	-497.460937
426492.077732	0.879010	9.669111	0.132500
426493.119779	0.389327	258.496094	67.187500
426493.121781	0.726531	258.496094	67.187500
426493.123781	0.882984	258.496094	67.187500
426493.125781	0.880472	9.685187	0.119042
426494.135817	0.429122	109.082031	-460.058594
426494.137819	0.760926	109.082031	-460.058594
426494.141819	0.880872	109.082031	-460.058594
426494.145818	0.877728	9.655011	0.172426
426495.185869	0.673602	267.968750	68.457031
426495.187869	0.879402	267.968750	68.457031
426495.189867	0.880414	267.968750	68.457031
426495.191869	0.878320	9.661525	0.155113
426496.234409	2.269923	99.218750	-480.957031
426496.238404	0.881897	99.218750	-480.957031
426496.240406	0.879594	99.218750	-480.957031
426496.242404	0.878272	9.660994	0.466478
426497.281356	0.396193	254.394531	70.800781
426497.283358	0.732772	254.394531	70.800781
426497.285359	0.883690	254.394531	70.800781
426497.287356	0.881035	9.691382	0.121493
426498.297382	0.433750	106.347656	-462.988281
426498.299384	0.764827	106.347656	-462.988281
426498.301383	0.883581	106.347656	-462.988281
426498.303385	0.880408	9.684487	0.153526
426499.348343	0.811885	256.640625	72.070312
426499.352342	0.879125	256.640625	72.070312
426499.354345	0.877547	9.653017	0.152530
426500.396389	0.744704	98.535156	-481.933594
426500.398391	0.883808	98.535156	-481.933594
426500.402389	0.878893	9.667826	0.130969
426501.444989	0.748414	253.808594	74.023437
426501.446990	0.883251	253.808594	74.023437
426501.448991	0.880189	9.682076	0.135159
426502.459006	0.450104	99.218750	-478.613281
426502.461007	0.778171	99.218750	-478.613281
426502.463009	0.884779	99.218750	-478.613281
426502.465008	0.881503	9.696531	0.153608
426503.507050	0.355930	265.527344	73.925781
426503.509053	0.695519	265.527344	73.925781
426503.513050	0.881462	265.527344	73.925781
426503.515051	0.879427	9.673694	0.166782
426504.555637	0.359166	93.554687	-491.601562
426504.557638	0.698595	93.554687	-491.601562
426504.559638	0.882665	93.554687	-491.601562
426504.561637	0.881722	9.698942	0.124529
426505.605678	0.608639	253.222656	75.488281
426505.607678	0.617902	253.222656	75.488281
426505.609678	0.881193	253.222656	75.488281
426505.611679	0.878776	9.666541	0.199439
426506.653728	0.520434	85.839844	-505.566406
426506.655730	0.825770	85.839844	-505.566406
426506.657731	0.883028	85.839844	-505.566406
426506.659729	0.880067	9.680738	0.100502
426507.702281	0.514895	247.363281	76.367187
426507.704282	0.822234	247.363281	76.367187
426507.706280	0.882400	247.363281	76.367187
426507.708282	0.882229	9.704516	0.120700
426508.719212	0.703697	87.109375	-501.953125
426508.721214	0.881550	87.109375	-501.953125
426508.723215	0.880207	9.682272	0.122172
426509.767236	0.612475	255.273437	75.878906
426509.769236	0.866713	255.273437	75.878906
426509.771238	0.882279	255.273437	75.878906
426509.773237	0.879754	9.677291	0.149585
426510.815816	0.612970	83.691406	-507.519531
426510.817819	0.866570	83.691406	-507.519531
426510.819816	0.881756	83.691406	-507.519531
426510.821818	0.879344	9.672789	0.191584
426511.866741	0.879922	248.730469	76.757812
426511.868743	0.881930	248.730469	76.757812
426511.870743	0.879631	9.675944	0.129540
426512.879318	0.462574	84.765625	-505.859375
426512.881321	0.787343	84.765625	-505.859375
426512.883322	0.883614	84.765625	-505.859375
426512.885320	0.880415	9.684567	0.129347
426513.929461	0.727264	256.347656	76.464844
426513.931463	0.883072	256.347656	76.464844
426513.933462	0.880552	9.686074	0.157311
426514.976024	0.388152	82.226562	-509.765625
426514.978025	0.725397	82.226562	-509.765625
426514.980025	0.882578	82.226562	-509.765625
426514.982026	0.880153	9.681687	0.103454
426516.024612	0.390315	247.558594	77.148437
426516.026613	0.727465	247.558594	77.148437
426516.028612	0.883101	247.558594	77.148437
426516.030614	0.880460	9.685063	0.126545
426517.043181	0.824334	82.714844	-508.691406
426517.045183	0.882267	82.714844	-508.691406
426517.047183	0.879354	9.672895	0.129396
426518.089223	0.430793	257.324219	76.464844
426518.091225	0.762477	257.324219	76.464844
426518.093224	0.883811	257.324219	76.464844
426518.095225	0.880594	9.686534	0.161881
426519.137767	0.424578	83.398437	-507.421875
426519.139770	0.757294	83.398437	-507.421875
426519.143767	0.880220	83.398437	-507.421875
426519.145768	0.878414	9.662553	0.108698
426520.188718	0.806081	248.242187	77.734375
426520.190721	0.882692	248.242187	77.734375
426520.192720	0.879645	9.676095	0.133058
426521.202721	0.521625	86.914062	-499.609375
426521.204724	0.826046	86.914062	-499.609375
426521.206725	0.882273	86.914062	-499.609375
426521.208725	0.879413	9.673542	0.128402
426522.250722	0.423539	252.343750	78.027344
426522.252723	0.756558	252.343750	78.027344
426522.254722	0.884062	252.343750	78.027344
426522.256724	0.880902	9.689920	0.162352
426523.298752	0.329211	83.203125	-506.542969
426523.300753	0.669980	83.203125	-506.542969
426523.302757	0.879194	83.203125	-506.542969
426523.304758	0.881280	83.203125	-506.542969
426523.306759	0.879011	9.669120	0.106439
426524.349331	0.670059	247.558594	78.613281
426524.351332	0.879009	247.558594	78.613281
426524.353331	0.881095	247.558594	78.613281
426524.355332	0.878934	9.668278	0.134265
426525.363875	1.093685	86.621094	-499.707031
426525.365877	0.783489	86.621094	-499.707031
426525.367877	0.885389	86.621094	-499.707031
426525.369877	0.882233	9.704560	0.141627
426526.445928	0.572884	232.226562	78.906250
426526.449936	0.881637	232.226562	78.906250
426526.451937	0.879118	232.226562	78.906250
426526.453938	0.877604	9.653646	0.112214
426527.461961	0.612580	80.664062	-508.984375
426527.463964	0.865805	80.664062	-508.984375
426527.465964	0.880810	80.664062	-508.984375
426527.467964	0.878504	9.663546	0.188574
426528.509969	0.515691	243.554687	78.808594
426528.511970	0.822510	243.554687	78.808594
426528.513971	0.881829	243.554687	78.808594
426528.515973	0.878978	9.668756	0.133927
426529.524492	0.295805	92.285156	-488.964844
426529.526492	0.638220	92.285156	-488.964844
426529.528493	0.873090	92.285156	-488.964844
426529.530493	0.881185	92.285156	-488.964844
426529.532494	0.878867	9.667534	0.150854
426530.574512	0.544574	251.464844	78.906250
426530.576514	0.838454	251.464844	78.906250
426530.578515	0.881623	251.464844	78.906250
426530.580517	0.878931	9.668242	0.171390
426531.624586	0.785531	88.378906	-495.312500
426531.626589	0.883424	88.378906	-495.312500
426531.630586	0.878454	9.662996	0.131698
426532.672665	0.712868	238.183594	79.199219
426532.674668	0.882818	238.183594	79.199219
426532.676668	0.880973	9.690700	0.141254
426533.720771	0.634390	84.667969	-500.000000
426533.722773	0.872211	84.667969	-500.000000
426533.724776	0.881208	84.667969	-500.000000
426533.726775	0.878855	9.667410	0.269100
426534.769336	0.632465	231.445312	78.515625
426534.771337	0.871357	231.445312	78.515625
426534.773337	0.880871	231.445312	78.515625
426534.775337	0.878594	9.664529	0.101466
426535.783904	0.422967	89.062500	-491.699219
426535.785905	0.756091	89.062500	-491.699219
426535.787907	0.884274	89.062500	-491.699219
426535.789906	0.881148	9.692632	0.123700
426536.833892	0.660807	242.773437	77.734375
426536.835895	0.670089	242.773437	77.734375
426536.837894	0.881316	242.773437	77.734375
426536.839893	0.879055	9.669607	0.408367
426537.881965	0.575543	89.941406	-489.453125
426537.883967	0.853452	89.941406	-489.453125
426537.885967	0.882481	89.941406	-489.453125
426537.887967	0.879853	9.678381	0.112535
426538.896905	0.429877	243.847656	76.953125
426538.898909	0.761961	243.847656	76.953125
426538.902905	0.881423	243.847656	76.953125
426538.904907	0.879472	9.674189	0.162212
426539.944902	0.327220	94.824219	-480.859375
426539.948903	0.879061	94.824219	-480.859375
426539.950904	0.881413	94.824219	-480.859375
426539.952904	0.879207	9.671283	0.137769
426540.994909	0.573051	239.843750	75.585937
426540.996913	0.852193	239.843750	75.585937
426540.998912	0.882076	239.843750	75.585937
426541.000913	0.879455	9.674004	0.119831
426542.042922	0.478739	87.792969	-488.574219
426542.044923	0.798853	87.792969	-488.574219
426542.046923	0.882894	87.792969	-488.574219
426542.048923	0.879759	9.677353	0.113478
426543.090904	0.377137	231.250000	74.316406
426543.092905	0.715530	231.250000	74.316406
426543.094905	0.883925	231.250000	74.316406
426543.096903	0.882024	9.702265	0.104868
426544.106905	0.410301	92.187500	-480.761719
426544.108907	0.745364	92.187500	-480.761719
426544.110906	0.884500	92.187500	-480.761719
426544.112907	0.881506	9.696567	0.158210
426545.154982	0.322244	242.480469	73.632812
426545.156984	0.663464	242.480469	73.632812
426545.158985	0.877839	242.480469	73.632812
426545.160984	0.880842	242.480469	73.632812
426545.162985	0.878677	9.665442	0.138213
426546.204994	0.569100	87.304687	-485.839844
426546.207002	0.850447	87.304687	-485.839844
426546.208999	0.882169	87.304687	-485.839844
426546.210997	0.879473	9.674208	0.113311
426547.253575	0.569711	234.863281	72.656250
426547.255582	0.850543	234.863281	72.656250
426547.257582	0.881781	234.863281	72.656250
426547.259583	0.879212	9.671327	0.104193
426548.269607	0.607062	95.996094	-473.632812
426548.273613	0.881333	95.996094	-473.632812
426548.275614	0.878938	95.996094	-473.632812
426548.277614	0.877491	9.652406	0.193224
426549.317652	0.519163	249.511719	70.800781
426549.319653	0.824825	249.511719	70.800781
426549.321653	0.882338	249.511719	70.800781
426549.323654	0.879441	9.673853	0.141239
426550.365663	0.423986	78.906250	-491.699219
426550.369667	0.884467	78.906250	-491.699219
426550.371667	0.881409	78.906250	-491.699219
426550.373667	0.879405	9.673454	0.120866
426551.417684	0.878404	242.578125	70.410156
426551.419687	0.880687	242.578125	70.410156
426551.423685	0.877153	9.648684	0.114455
426552.436256	0.880544	78.027344	-491.894531
426552.440256	0.877649	78.027344	-491.894531
426552.442258	0.876564	9.642205	0.132398
426553.480320	0.708114	250.585937	70.410156
426553.482323	0.883119	250.585937	70.410156
426553.484323	0.881624	9.697869	0.147347
426554.528346	0.616700	74.804687	-494.921875
426554.530347	0.867388	74.804687	-494.921875
426554.532348	0.881255	74.804687	-494.921875
426554.534347	0.878906	9.667968	0.117164
426555.578892	0.865643	238.671875	71.093750
426555.580895	0.881981	238.671875	71.093750
426555.582894	0.879493	9.674419	0.200192
426556.592940	0.651557	83.593750	-486.132812
426556.594940	0.875827	83.593750	-486.132812
426556.596943	0.881028	83.593750	-486.132812
426556.598942	0.878780	9.666585	0.375858
426557.673009	0.437181	237.207031	71.679687
426557.675009	0.768122	237.207031	71.679687
426557.677010	0.884860	237.207031	71.679687
426557.679010	0.881678	9.698463	0.111439
426558.693067	0.883527	63.574219	-505.664062
426558.697066	0.878701	9.665709	0.102021
426559.737082	0.383550	248.046875	71.484375
426559.739084	0.721404	248.046875	71.484375
426559.741082	0.883341	248.046875	71.484375
426559.743082	0.881118	9.692295	0.126549
426560.753655	0.513843	76.855469	-494.335937
426560.755657	0.821714	76.855469	-494.335937
426560.757657	0.882551	76.855469	-494.335937
426560.759656	0.879603	9.675634	0.139806
426561.835677	0.627874	233.496094	73.730469
426561.837678	0.870916	233.496094	73.730469
426561.839677	0.881832	233.496094	73.730469
426561.841680	0.879374	9.673117	0.244122
426562.849706	0.324774	64.160156	-504.492187
426562.851708	0.665819	64.160156	-504.492187
426562.853707	0.878254	64.160156	-504.492187
426562.855708	0.881001	64.160156	-504.492187
426562.857708	0.878762	9.666382	0.109394
426563.899746	0.573879	243.945312	73.535156
426563.901747	0.852161	243.945312	73.535156
426563.903747	0.881305	243.945312	73.535156
426563.905747	0.878787	9.666656	0.137549
426564.913829	0.278344	71.679687	-497.851562
426564.917831	0.868886	71.679687	-497.851562
426564.919839	0.881338	71.679687	-497.851562
426564.921845	0.878946	9.668402	0.137348
426565.995893	0.405751	233.984375	73.535156
426565.997895	0.741465	233.984375	73.535156
426565.999896	0.884709	233.984375	73.535156
426566.001897	0.881878	9.700661	0.109426
426567.013927	0.773086	62.402344	-504.199219
426567.015929	0.883089	62.402344	-504.199219
426567.017930	0.879846	9.678301	0.109530
426568.060456	0.435941	244.921875	73.339844
426568.062456	0.766901	244.921875	73.339844
426568.064457	0.884493	244.921875	73.339844
426568.068455	0.879303	9.672337	0.144490
426569.078512	0.796903	82.031250	-484.375000
426569.082516	0.879872	82.031250	-484.375000
426569.084518	0.878119	9.659309	0.142200
426570.157052	0.335445	235.449219	73.632812
426570.159068	0.676149	235.449219	73.632812
426570.161070	0.880703	235.449219	73.632812
426570.163071	0.881682	9.698499	0.120942
426571.173106	0.380208	66.601562	-496.582031
426571.175109	0.718349	66.601562	-496.582031
426571.177108	0.883310	66.601562	-496.582031
426571.179108	0.881156	9.692720	0.114081
426572.223165	0.632681	247.363281	72.558594
426572.225166	0.871838	247.363281	72.558594
426572.227165	0.881371	247.363281	72.558594
426572.229167	0.878983	9.668810	0.131143
426573.271690	0.622233	61.718750	-496.191406
426573.273691	0.869059	61.718750	-496.191406
426573.275692	0.881392	61.718750	-496.191406
426573.277692	0.878998	9.668979	0.093115
426574.319722	0.532407	234.277344	73.242187
426574.321727	0.832186	234.277344	73.242187
426574.323725	0.882007	234.277344	73.242187
426574.325725	0.879217	9.671389	0.106243
426575.334242	0.307924	75.097656	-484.863281
426575.336243	0.649898	75.097656	-484.863281
426575.338243	0.875628	75.097656	-484.863281
426575.340245	0.881141	75.097656	-484.863281
426575.342243	0.878857	9.667427	0.126759
426576.384340	0.569376	236.914062	73.632812
426576.386342	0.850166	236.914062	73.632812
426576.388343	0.881348	236.914062	73.632812
426576.390341	0.878844	9.667286	0.132223
426577.432390	0.482724	73.730469	-484.472656
426577.434391	0.801632	73.730469	-484.472656
426577.436391	0.882744	73.730469	-484.472656
426577.438391	0.879647	9.676112	0.110200
426578.482436	0.729598	231.835937	73.828125
426578.484438	0.883517	231.835937	73.828125
426578.486437	0.880987	9.690860	0.708156
426579.496505	0.438038	90.625000	-468.261719
426579.498507	0.768525	90.625000	-468.261719
426579.500508	0.884512	90.625000	-468.261719
426579.502507	0.881285	9.694139	0.138522
426580.544529	0.340835	233.886719	75.390625
426580.546538	0.681162	233.886719	75.390625
426580.548537	0.880791	233.886719	75.390625
426580.550539	0.881235	9.693580	0.133453
426581.594607	1.262144	84.375000	-474.609375
426581.596611	0.861684	84.375000	-474.609375
426581.598609	0.881568	84.375000	-474.609375
426581.600611	0.879074	9.669811	0.126599
426582.642625	0.504430	226.562500	76.464844
426582.646624	0.882565	226.562500	76.464844
426582.648626	0.879537	226.562500	76.464844
426582.650628	0.877968	9.657652	0.102827
426583.658645	0.540576	88.476562	-470.214844
426583.660648	0.836627	88.476562	-470.214844
426583.662648	0.882143	88.476562	-470.214844
426583.664649	0.879382	9.673205	0.147054
426584.706676	0.447894	231.835937	77.832031
426584.708680	0.776498	231.835937	77.832031
426584.710679	0.884665	231.835937	77.832031
426584.712678	0.881418	9.695601	0.133688
426585.755265	0.448399	87.402344	-470.996094
426585.757265	0.776808	87.402344	-470.996094
426585.759267	0.884203	87.402344	-470.996094
426585.761265	0.881018	9.691195	0.116056
426586.804192	0.508741	219.628906	79.199219
426586.806194	0.818613	219.628906	79.199219
426586.808196	0.882646	219.628906	79.199219
426586.810196	0.879668	9.676352	0.100873
426587.818793	0.301851	89.257812	-470.214844
426587.820796	0.644151	89.257812	-470.214844
426587.822795	0.874664	89.257812	-470.214844
426587.824796	0.881487	89.257812	-470.214844
426587.826796	0.879215	9.671362	0.156434
426588.868845	0.555333	225.488281	80.078125
426588.870848	0.844099	225.488281	80.078125
426588.872849	0.882090	225.488281	80.078125
426588.874848	0.879431	9.673738	0.128971
426589.916892	0.466386	83.886719	-475.683594
426589.918893	0.790466	83.886719	-475.683594
426589.920892	0.884425	83.886719	-475.683594
426589.922893	0.881280	9.694077	0.119930
426590.964953	0.378724	215.820312	81.445312
426590.966957	0.717024	215.820312	81.445312
426590.968957	0.884363	215.820312	81.445312
426590.970956	0.882404	9.706439	0.104096
426592.015017	0.631152	77.343750	-481.640625
426592.017019	0.871079	77.343750	-481.640625
426592.019021	0.872470	77.343750	-481.640625
426592.021021	0.878598	9.664582	0.098222
426593.029559	0.417029	220.410156	82.519531
426593.031564	0.751323	220.410156	82.519531
426593.033568	0.885337	220.410156	82.519531
426593.035567	0.882398	9.706377	0.142576
426594.079605	0.665492	87.207031	-473.144531
426594.081606	0.878322	87.207031	-473.144531
426594.083606	0.881037	87.207031	-473.144531
426594.085607	0.878845	9.667295	0.121388
426595.128153	0.659722	209.667969	82.910156
426595.130157	0.877512	209.667969	82.910156
426595.132155	0.881271	209.667969	82.910156
426595.134155	0.879068	9.669749	0.108838
426596.176173	0.564497	78.320312	-481.054687
426596.178172	0.848354	78.320312	-481.054687
426596.180174	0.882174	78.320312	-481.054687
426596.182176	0.879515	9.674667	0.090999
426597.191156	0.424724	217.089844	83.984375
426597.193159	0.757721	217.089844	83.984375
426597.195158	0.884531	217.089844	83.984375
426597.197159	0.881429	9.695716	0.137422
426598.243653	0.884325	87.402344	-473.535156
426598.245655	0.881362	87.402344	-473.535156
426598.247656	0.881243	9.693678	0.117287
426599.288203	0.407216	217.480469	85.058594
426599.290205	0.742707	217.480469	85.058594
426599.292205	0.884239	217.480469	85.058594
426599.294206	0.881297	9.694263	0.109748
426600.337149	0.471247	73.535156	-484.375000
426600.339151	0.794104	73.535156	-484.375000
426600.341151	0.884651	73.535156	-484.375000
426600.343152	0.881487	9.696354	0.100079
426601.355192	0.819007	216.796875	84.472656
426601.357192	0.882918	216.796875	84.472656
426601.361190	0.878262	9.660878	0.142039
426602.403240	0.754315	85.253906	-474.218750
426602.407240	0.881221	85.253906	-474.218750
426602.409244	0.879282	9.672098	0.122122
426603.449825	0.420704	215.917969	84.960937
426603.453825	0.885613	215.917969	84.960937
426603.455827	0.882639	215.917969	84.960937
426603.457828	0.880601	9.686605	0.119662
426604.498349	0.413199	79.687500	-478.906250
426604.500350	0.747897	79.687500	-478.906250
426604.502350	0.883576	79.687500	-478.906250
426604.504351	0.880582	9.686401	0.100133
426605.546387	0.319227	209.277344	84.179687
426605.548389	0.378381	209.277344	84.179687
426605.550390	0.877923	209.277344	84.179687
426605.552393	0.881438	209.277344	84.179687
426605.554394	0.879171	9.670884	0.095100
426606.564407	0.696448	85.253906	-472.656250
426606.566407	0.704187	85.253906	-472.656250
426606.568408	0.881536	9.696895	0.126142
426607.612510	0.616962	216.503906	85.156250
426607.614512	0.627346	216.503906	85.156250
426607.616512	0.881545	216.503906	85.156250
426607.618511	0.879149	9.670635	0.117978
426608.661042	0.609078	79.003906	-476.074219
426608.665041	0.881662	79.003906	-476.074219
426608.667042	0.879239	79.003906	-476.074219
426608.669042	0.877768	9.655445	0.166891
426609.709964	0.667471	209.472656	85.156250
426609.711965	0.878984	209.472656	85.156250
426609.713966	0.881507	209.472656	85.156250
426609.715967	0.879272	9.671991	0.417087
426610.723963	0.359930	84.082031	-470.605469
426610.725965	0.699383	84.082031	-470.605469
426610.727963	0.883158	84.082031	-470.605469
426610.731963	0.879900	9.678895	0.131776
426611.772023	0.268949	214.941406	84.277344
426611.774025	0.613006	214.941406	84.277344
426611.776025	0.866483	214.941406	84.277344
426611.778025	0.881576	214.941406	84.277344
426611.780024	0.879097	9.670068	0.119513
426612.822067	0.524109	78.515625	-472.949219
426612.824068	0.827635	78.515625	-472.949219
426612.826067	0.882362	78.515625	-472.949219
426612.830065	0.877860	9.656456	0.105158
426613.870105	0.433075	202.441406	83.300781
426613.872107	0.764778	202.441406	83.300781
426613.874108	0.885173	202.441406	83.300781
426613.876108	0.882065	9.702717	0.093543
426614.888160	0.795712	81.835937	-468.359375
426614.890160	0.883064	81.835937	-468.359375
426614.892160	0.879888	9.678771	0.138903
426615.934191	0.381521	215.332031	83.496094
426615.936193	0.719589	215.332031	83.496094
426615.938193	0.883808	215.332031	83.496094
426615.940194	0.881622	9.697843	0.117188
426616.982218	0.285144	79.003906	-468.066406
426616.984220	0.628310	79.003906	-468.066406
426616.986220	0.870799	79.003906	-468.066406
426616.988221	0.881474	79.003906	-468.066406
426616.990221	0.879125	9.670370	0.109920
426618.032276	0.541596	208.593750	82.812500
426618.034279	0.837680	208.593750	82.812500
426618.036280	0.883353	208.593750	82.812500
426618.038278	0.880545	9.685994	0.094043
426619.050935	0.880563	81.347656	-464.355469
426619.052938	0.881077	81.347656	-464.355469
426619.054938	0.878980	9.668775	0.483132
426620.097004	0.595385	216.601562	82.324219
426620.099006	0.860900	216.601562	82.324219
426620.101008	0.882096	216.601562	82.324219
426620.103006	0.879579	9.675367	0.118907
426621.151030	0.880004	76.757812	-465.722656
426621.153032	0.878353	76.757812	-465.722656
426621.155032	0.877133	9.648462	0.112228
426622.193067	0.412092	209.765625	80.566406
426622.195070	0.746912	209.765625	80.566406
426622.197070	0.884211	209.765625	80.566406
426622.199069	0.881218	9.693403	0.095859
426623.211081	0.774726	79.296875	-462.304687
426623.213085	0.883776	79.296875	-462.304687
426623.215084	0.880519	9.685710	0.139771
426624.257106	0.352991	220.800781	80.761719
426624.259107	0.369363	220.800781	80.761719
426624.261108	0.882601	220.800781	80.761719
426624.263115	0.882271	9.704977	0.130923
426625.307102	0.595039	76.074219	-462.890625
426625.309105	0.860984	76.074219	-462.890625
426625.311104	0.882284	76.074219	-462.890625
426625.313102	0.879689	9.676582	0.111008
426626.356037	0.655633	218.261719	79.589844
426626.358040	0.876715	218.261719	79.589844
426626.360047	0.881094	218.261719	79.589844
426626.362048	0.878868	9.667542	0.103597
426627.370079	0.355117	75.390625	-462.402344
426627.372080	0.694909	75.390625	-462.402344
426627.374082	0.882483	75.390625	-462.402344
426627.376080	0.881806	9.699863	0.136774
426628.420107	0.600617	224.121094	79.003906
426628.422109	0.863209	224.121094	79.003906
426628.424109	0.882786	224.121094	79.003906
426628.426113	0.880219	9.682413	0.152997
426629.470218	0.828071	68.847656	-465.527344
426629.472221	0.882856	68.847656	-465.527344
426629.476221	0.878334	9.661675	0.103425
426630.518738	0.822501	221.191406	78.222656
426630.520741	0.882638	221.191406	78.222656
426630.522740	0.879675	9.676423	0.112340
426631.533708	0.710717	70.507812	-465.039062
426631.535708	0.882808	70.507812	-465.039062
426631.537712	0.883082	9.713902	0.132975
426632.613730	0.488736	210.058594	78.320312
426632.617731	0.882730	210.058594	78.320312
426632.619730	0.879738	210.058594	78.320312
426632.621731	0.878042	9.658459	0.090171
426633.629790	0.531077	61.328125	-469.628906
426633.631791	0.831656	61.328125	-469.628906
426633.633794	0.882584	61.328125	-469.628906
426633.635792	0.879697	9.676670	0.102003
426634.677841	0.441970	222.363281	79.003906
426634.679844	0.771655	222.363281	79.003906
426634.681844	0.883846	222.363281	79.003906
426634.683844	0.880634	9.686977	0.117029
426635.694408	0.568169	64.550781	-469.140625
426635.696410	0.850055	64.550781	-469.140625
426635.698410	0.882071	64.550781	-469.140625
426635.700410	0.879422	9.673639	0.129004
426636.774429	0.342489	212.011719	79.492187
426636.776433	0.682928	212.011719	79.492187
426636.778433	0.880375	212.011719	79.492187
426636.780433	0.881007	9.691081	0.095770
426637.792442	0.718467	53.417969	-474.511719
426637.794446	0.882531	53.417969	-474.511719
426637.796445	0.880381	9.684195	0.101419
426638.840483	0.629354	224.121094	80.078125
426638.842486	0.871200	224.121094	80.078125
426638.844485	0.881591	224.121094	80.078125
426638.848484	0.877775	9.655525	0.123788
426639.857058	0.753327	60.937500	-471.289062
426639.859059	0.883787	60.937500	-471.289062
426639.861061	0.880681	9.687491	0.125771
426640.937088	1.225631	210.742187	80.566406
426640.941090	0.882213	210.742187	80.566406
426640.943089	0.879474	210.742187	80.566406
426640.947088	0.876687	9.643553	0.097218
426641.955147	0.854594	58.789062	-472.167969
426641.957150	0.881877	58.789062	-472.167969
426641.959149	0.879314	9.672452	0.099809
426643.001678	0.570958	225.195312	80.761719
426643.003681	0.851294	225.195312	80.761719
426643.005680	0.882150	225.195312	80.761719
426643.007680	0.879555	9.675102	0.122400
426644.017706	0.606287	68.261719	-466.113281
426644.019707	0.864626	68.261719	-466.113281
426644.021709	0.881885	68.261719	-466.113281
426644.023708	0.879448	9.673923	0.171988
426645.097690	0.377199	207.617187	80.761719
426645.099691	0.715655	207.617187	80.761719
426645.101691	0.882647	207.617187	80.761719
426645.103691	0.880638	9.687013	0.104489
426646.114196	0.495068	54.101562	-470.898437
426646.116198	0.809845	54.101562	-470.898437
426646.118198	0.882457	54.101562	-470.898437
426646.120198	0.879485	9.674332	0.101438
426647.162263	0.409958	221.972656	80.664062
426647.164263	0.744983	221.972656	80.664062
426647.166263	0.883316	221.972656	80.664062
426647.168264	0.880351	9.683858	0.129531
426648.178326	1.314229	64.843750	-464.550781
426648.180326	0.779445	64.843750	-464.550781
426648.182328	0.884379	64.843750	-464.550781
426648.184327	0.881158	9.692738	0.139364
426649.262410	0.854419	210.449219	80.371094
426649.264412	0.882437	210.449219	80.371094
426649.266413	0.879746	9.677202	0.101008
426650.276439	0.616088	64.941406	-461.816406
426650.278439	0.867040	64.941406	-461.816406
426650.280441	0.881013	64.941406	-461.816406
426650.282440	0.878681	9.665486	0.108155
426651.325011	0.613892	215.332031	80.078125
426651.327012	0.866976	215.332031	80.078125
426651.329012	0.881909	215.332031	80.078125
426651.331013	0.879468	9.674145	0.209816
426652.373053	0.525854	54.199219	-463.769531
426652.375055	0.828844	54.199219	-463.769531
426652.377056	0.882644	54.199219	-463.769531
426652.379055	0.879681	9.676494	0.089760
426653.423091	0.765855	209.765625	80.273437
426653.425093	0.883584	209.765625	80.273437
426653.427094	0.880443	9.684877	0.094131
426654.437672	0.565818	61.816406	-459.472656
426654.439674	0.849261	61.816406	-459.472656
426654.441673	0.882564	61.816406	-459.472656
426654.445673	0.878381	9.662189	0.110191
426655.485699	0.473713	215.429687	80.859375
426655.487701	0.795481	215.429687	80.859375
426655.489702	0.883171	215.429687	80.859375
426655.491702	0.880066	9.680730	0.118324
426656.533767	0.386297	59.667969	-458.203125
426656.535767	0.723972	59.667969	-458.203125
426656.537767	0.883250	59.667969	-458.203125
426656.539767	0.880816	9.688980	0.098545
426657.583854	1.678140	207.714844	81.542969
426657.585857	0.874108	207.714844	81.542969
426657.587856	0.881272	207.714844	81.542969
426657.589858	0.878945	9.668393	0.307072
426658.598795	0.496349	71.289062	-451.660156
426658.600802	0.810853	71.289062	-451.660156
426658.602805	0.882769	71.289062	-451.660156
426658.604808	0.879646	9.676104	0.125313
426659.646832	0.404629	213.085937	82.910156
426659.650832	0.883337	213.085937	82.910156
426659.652835	0.880443	213.085937	82.910156
426659.654834	0.878594	9.664538	0.118087
426660.699406	0.883367	69.238281	-452.148437
426660.701409	0.880522	9.685737	0.103055
426661.745962	0.736693	203.222656	83.496094
426661.747962	0.883413	203.222656	83.496094
426661.749965	0.880658	9.687235	0.086307
426662.760487	0.522650	78.125000	-447.460937
426662.762488	0.826898	78.125000	-447.460937
426662.764488	0.882694	78.125000	-447.460937
426662.766493	0.879849	9.678336	0.131507
426663.808520	0.430591	208.105469	84.277344
426663.810524	0.762416	208.105469	84.277344
426663.812523	0.883554	208.105469	84.277344
426663.814523	0.880358	9.683938	0.118003
426664.858572	0.675843	74.804687	-450.000000
426664.860573	0.880700	74.804687	-450.000000
426664.862572	0.881487	74.804687	-450.000000
426664.864570	0.879245	9.671690	0.105955
426665.905138	0.337373	194.042969	84.960937
426665.907145	0.678058	194.042969	84.960937
426665.909153	0.880612	194.042969	84.960937
426665.911153	0.881293	194.042969	84.960937
426665.913151	0.879102	9.670121	0.087726
426666.921165	0.376506	85.937500	-442.675781
426666.923167	0.714959	85.937500	-442.675781
426666.925168	0.883767	85.937500	-442.675781
426666.927168	0.881870	9.700572	0.143074
426667.972061	0.762867	208.886719	87.207031
426667.976062	0.880439	208.886719	87.207031
426667.978063	0.878708	9.665788	0.122483
426669.021006	0.809727	66.308594	-453.906250
426669.023006	0.883424	66.308594	-453.906250
426669.027006	0.878668	9.665354	0.105157
426670.067039	0.401583	197.851562	87.597656
426670.069042	0.737650	197.851562	87.597656
426670.071044	0.883149	197.851562	87.597656
426670.073043	0.880389	9.684283	0.091085
426671.115566	0.393349	60.449219	-456.250000
426671.117569	0.412336	60.449219	-456.250000
426671.119568	0.883370	60.449219	-456.250000
426671.121568	0.880812	9.688928	0.087632
426672.133623	0.766733	199.023437	88.183594
426672.135627	0.884207	199.023437	88.183594
426672.137625	0.881020	9.691223	0.119977
426673.179656	0.342012	79.394531	-448.242187
426673.181666	0.682448	79.394531	-448.242187
426673.183663	0.881497	79.394531	-448.242187
426673.185664	0.881945	9.701397	0.113635
426674.229728	0.596967	190.039062	87.988281
426674.231727	0.861443	190.039062	87.988281
426674.233728	0.881872	190.039062	87.988281
426674.235729	0.879406	9.673463	0.097644
426675.281794	0.883431	67.285156	-453.613281
426675.283795	0.880408	9.684487	0.087738
426676.294323	0.631055	201.171875	89.160156
426676.296325	0.871873	201.171875	89.160156
426676.298326	0.881883	201.171875	89.160156
426676.300326	0.879484	9.674322	0.280203
426677.342377	0.543443	74.023437	-450.976562
426677.344380	0.838237	74.023437	-450.976562
426677.348377	0.879610	74.023437	-450.976562
426677.350380	0.878012	9.658131	0.112355
426678.392480	0.787647	195.507812	88.964844
426678.394483	0.882922	195.507812	88.964844
426678.396482	0.879767	9.677442	0.091863
426679.439050	0.461525	64.453125	-453.808594
426679.441052	0.786609	64.453125	-453.808594
426679.443052	0.791300	64.453125	-453.808594
426679.445053	0.880302	9.683317	0.087061
426680.455105	0.502941	207.128906	90.234375
426680.457106	0.815074	207.128906	90.234375
426680.459108	0.882971	207.128906	90.234375
426680.461107	0.879940	9.679338	0.121875
426681.503159	0.412965	69.726562	-450.390625
426681.505162	0.747828	69.726562	-450.390625
426681.509158	0.882253	69.726562	-450.390625
426681.513157	0.878896	9.667861	0.112393
426682.551201	0.321259	191.503906	88.964844
426682.553200	0.662666	191.503906	88.964844
426682.555204	0.878062	191.503906	88.964844
426682.557206	0.881256	191.503906	88.964844
426682.559207	0.878997	9.668969	0.098066
426683.601227	0.569111	65.234375	-451.171875
426683.603230	0.850391	65.234375	-451.171875
426683.605230	0.881923	65.234375	-451.171875
426683.607229	0.879303	9.672337	0.087458
426684.617252	0.605291	198.046875	89.257812
426684.619253	0.864272	198.046875	89.257812
426684.621254	0.881890	198.046875	89.257812
426684.623254	0.879449	9.673941	0.127373
426685.669258	0.882711	76.074219	-444.433594
426685.671261	0.879781	9.677592	0.116614
426686.713772	0.499999	198.925781	89.160156
426686.715774	0.813212	198.925781	89.160156
426686.717774	0.882657	198.925781	89.160156
426686.719775	0.879589	9.675474	0.099804
426687.762710	0.560390	66.699219	-447.070312
426687.764711	0.846446	66.699219	-447.070312
426687.768710	0.879321	66.699219	-447.070312
426687.770712	0.877790	9.655694	0.087835
426688.781240	0.881507	200.878906	88.671875
426688.783241	0.882313	200.878906	88.671875
426688.785243	0.880016	9.680171	0.129923
426689.827280	0.591940	72.265625	-443.359375
426689.829280	0.859879	72.265625	-443.359375
426689.831281	0.882338	72.265625	-443.359375
426689.833281	0.879734	9.677069	0.119357
426690.877264	0.808782	200.781250	88.183594
426690.879266	0.882575	200.781250	88.183594
426690.881265	0.879559	9.675146	0.105348
426691.926197	0.842599	56.640625	-447.363281
426691.928199	0.882002	56.640625	-447.363281
426691.930201	0.879338	9.672718	0.091120
426692.974628	0.830401	192.968750	86.425781
426692.976632	0.882490	192.968750	86.425781
426692.978632	0.879602	9.675625	0.078441
426693.989155	0.651702	78.710937	-436.425781
426693.991159	0.876230	78.710937	-436.425781
426693.993158	0.881436	78.710937	-436.425781
426693.995164	0.879179	9.670972	0.121946
426695.039155	0.842870	194.140625	85.839844
426695.041157	0.882255	194.140625	85.839844
426695.043156	0.879644	9.676085	0.104562
426696.085658	0.540905	61.425781	-443.066406
426696.087658	0.837063	61.425781	-443.066406
426696.089658	0.882526	61.425781	-443.066406
426696.091657	0.879719	9.676909	0.089983
426697.134186	0.532302	195.703125	85.156250
426697.138186	0.882366	195.703125	85.156250
426697.140186	0.879554	195.703125	85.156250
426697.142188	0.878006	9.658069	0.083971
426698.148710	1.569379	65.625000	-440.039062
426698.150716	0.655011	65.625000	-440.039062
426698.152719	0.877155	65.625000	-440.039062
426698.154718	0.881741	65.625000	-440.039062
426698.156719	0.879493	9.674428	0.118976
426699.198766	0.565989	202.246094	85.449219
426699.200767	0.849037	202.246094	85.449219
426699.202767	0.882023	202.246094	85.449219
426699.204769	0.879453	9.673985	0.109306
426700.246768	0.470372	57.421875	-442.187500
426700.248769	0.793109	57.421875	-442.187500
426700.250768	0.883394	57.421875	-442.187500
426700.252769	0.880139	9.681527	0.087455
